Time (s),Channel 1 (V)
0,0.0266701
0.00025,0.0448337
0.0005,0.0541611
0.00075,0.0804941
0.001,0.06185
0.00125,0.0730242
0.0015,0.0965388
0.00175,0.123626
0.002,0.104318
0.00225,0.0902342
0.0025,0.100833
0.00275,0.145472
0.003,0.119652
0.00325,0.0679657
0.0035,0.0529809
0.00375,0.10957
0.004,0.0564514
0.00425,0.0808314
0.0045,0.0509458
0.00475,0.100082
0.005,0.072069
0.00525,0.107503
0.0055,0.0700816
0.00575,0.0488342
0.006,0.01728
0.00625,0.0947878
0.0065,0.0423207
0.00675,0.0776282
0.007,0.0441519
0.00725,0.0940377
0.0075,0.0595355
0.00775,0.0748038
0.008,0.0707214
0.00825,0.0748997
0.0085,0.0789744
0.00875,0.0667959
0.009,0.0633964
0.00925,0.10429
0.0095,0.0885988
0.00975,0.0629214
0.01,0.0485352
0.01025,0.068113
0.0105,0.0988554
0.01075,0.0904966
0.011,0.0615202
0.01125,0.0608116
0.0115,0.0745432
0.01175,0.0105999
0.012,0.0293289
0.01225,0.0297944
0.0125,-0.000248547
0.01275,-0.0214074
0.013,0.00213066
0.01325,-0.00527714
0.0135,0.0188721
0.01375,-0.0424551
0.014,-0.0521797
0.01425,-0.0114275
0.0145,0.00696409
0.01475,-0.0492796
0.015,0.0381951
0.01525,-0.0097174
0.0155,0.0215571
0.01575,-0.0250335
0.016,0.0208634
0.01625,-0.0471722
0.0165,-0.0140403
0.01675,0.0364483
0.017,0.0411807
0.01725,0.0554529
0.0175,0.0806044
0.01775,0.0742098
0.018,0.0121264
0.01825,0.072889
0.0185,0.0334461
0.01875,0.104691
0.019,0.0720885
0.01925,0.0726233
0.0195,0.078486
0.01975,0.0911646
0.02,0.0827895
0.02025,0.0967153
0.0205,0.0872017
0.02075,0.0752038
0.021,0.089296
0.02125,0.0834625
0.0215,0.0798315
0.02175,0.101125
0.022,0.0878931
0.02225,0.0461725
0.0225,0.106483
0.02275,0.113358
0.023,0.0783121
0.02325,0.0781397
0.0235,0.0823933
0.02375,0.0994071
0.024,0.127218
0.02425,0.160995
0.0245,0.1549
0.02475,0.102887
0.025,0.0953197
0.02525,0.157323
0.0255,0.176336
0.02575,0.163528
0.026,0.151802
0.02625,0.185046
0.0265,0.10421
0.02675,0.119489
0.027,0.169258
0.02725,0.147781
0.0275,0.174828
0.02775,0.161078
0.028,0.140091
0.02825,0.132532
0.0285,0.154567
0.02875,0.116616
0.029,0.113443
0.02925,0.100215
0.0295,0.0819453
0.02975,0.0931718
0.03,0.0821334
0.03025,0.0669376
0.0305,0.045279
0.03075,0.0526374
0.031,0.0749045
0.03125,-0.0050724
0.0315,0.0214889
0.03175,0.0258904
0.032,0.00629727
0.03225,0.0704738
0.0325,0.0783676
0.03275,0.0755243
0.033,0.090458
0.03325,0.0835085
0.0335,0.110908
0.03375,0.0579913
0.034,0.121835
0.03425,0.0855359
0.0345,0.130778
0.03475,0.0930535
0.035,0.0695873
0.03525,0.125725
0.0355,0.137614
0.03575,0.0907289
0.036,0.0933825
0.03625,0.0662816
0.0365,0.138955
0.03675,0.100721
0.037,0.125493
0.03725,0.129151
0.0375,0.0673855
0.03775,0.0978356
0.038,0.080546
0.03825,0.0634967
0.0385,0.105349
0.03875,0.0752255
0.039,0.0971116
0.03925,0.128504
0.0395,0.130667
0.03975,0.0858076
0.04,0.117895
0.04025,0.0810158
0.0405,0.0897048
0.04075,0.148333
0.041,0.150362
0.04125,0.14178
0.0415,0.174643
0.04175,0.176342
0.042,0.186219
0.04225,0.200873
0.0425,0.215782
0.04275,0.253388
0.043,0.173257
0.04325,0.270028
0.0435,0.291669
0.04375,0.239727
0.044,0.31142
0.04425,0.287573
0.0445,0.260738
0.04475,0.23203
0.045,0.20501
0.04525,0.249108
0.0455,0.185605
0.04575,0.230279
0.046,0.242966
0.04625,0.249286
0.0465,0.170323
0.04675,0.229356
0.047,0.195185
0.04725,0.193705
0.0475,0.149775
0.04775,0.186609
0.048,0.132287
0.04825,0.156356
0.0485,0.143405
0.04875,0.188371
0.049,0.147471
0.04925,0.163908
0.0495,0.168642
0.04975,0.189962
0.05,0.188177
0.05025,0.190167
0.0505,0.191519
0.05075,0.211777
0.051,0.192018
0.05125,0.212071
0.0515,0.218665
0.05175,0.181117
0.052,0.207993
0.05225,0.169166
0.0525,0.167751
0.05275,0.225265
0.053,0.178547
0.05325,0.21261
0.0535,0.176452
0.05375,0.144164
0.054,0.199594
0.05425,0.169572
0.0545,0.150066
0.05475,0.165168
0.055,0.141127
0.05525,0.0794089
0.0555,0.188884
0.05575,0.152052
0.056,0.12475
0.05625,0.212349
0.0565,0.1512
0.05675,0.21811
0.057,0.160538
0.05725,0.155027
0.0575,0.160536
0.05775,0.178124
0.058,0.213386
0.05825,0.224125
0.0585,0.203804
0.05875,0.242063
0.059,0.260818
0.05925,0.279634
0.0595,0.259701
0.05975,0.24323
0.06,0.279156
0.06025,0.295391
0.0605,0.29944
0.06075,0.336609
0.061,0.316805
0.06125,0.290816
0.0615,0.350929
0.06175,0.302688
0.062,0.299235
0.06225,0.28285
0.0625,0.289512
0.06275,0.264172
0.063,0.284377
0.06325,0.251796
0.0635,0.308807
0.06375,0.282197
0.064,0.223686
0.06425,0.277117
0.0645,0.258913
0.06475,0.310797
0.065,0.280003
0.06525,0.253384
0.0655,0.329257
0.06575,0.271197
0.066,0.288848
0.06625,0.338989
0.0665,0.330208
0.06675,0.304415
0.067,0.308627
0.06725,0.376107
0.0675,0.31898
0.06775,0.341905
0.068,0.329983
0.06825,0.339188
0.0685,0.338069
0.06875,0.356896
0.069,0.314712
0.06925,0.333763
0.0695,0.370173
0.06975,0.328114
0.07,0.348313
0.07025,0.329348
0.0705,0.320984
0.07075,0.298114
0.071,0.28604
0.07125,0.303421
0.0715,0.273184
0.07175,0.271531
0.072,0.22644
0.07225,0.265842
0.0725,0.254217
0.07275,0.263853
0.073,0.244151
0.07325,0.300938
0.0735,0.254249
0.07375,0.279483
0.074,0.271117
0.07425,0.245419
0.0745,0.29783
0.07475,0.25764
0.075,0.329341
0.07525,0.310767
0.0755,0.27383
0.07575,0.36524
0.076,0.279671
0.07625,0.351305
0.0765,0.331229
0.07675,0.320773
0.077,0.356078
0.07725,0.422466
0.0775,0.362337
0.07775,0.399472
0.078,0.376425
0.07825,0.391016
0.0785,0.362801
0.07875,0.370332
0.079,0.370691
0.07925,0.356829
0.0795,0.37111
0.07975,0.368624
0.08,0.360105
0.08025,0.343591
0.0805,0.392914
0.08075,0.357702
0.081,0.332913
0.08125,0.359748
0.0815,0.419349
0.08175,0.364963
0.082,0.439738
0.08225,0.441362
0.0825,0.415532
0.08275,0.445241
0.083,0.454401
0.08325,0.457926
0.0835,0.483888
0.08375,0.497732
0.084,0.452664
0.08425,0.475004
0.0845,0.476178
0.08475,0.532245
0.085,0.518817
0.08525,0.441891
0.0855,0.460398
0.08575,0.530704
0.086,0.504702
0.08625,0.45793
0.0865,0.512125
0.08675,0.464988
0.087,0.45683
0.08725,0.464511
0.0875,0.488002
0.08775,0.454395
0.088,0.430511
0.08825,0.4142
0.0885,0.455316
0.08875,0.435579
0.089,0.409291
0.08925,0.426695
0.0895,0.404676
0.08975,0.44155
0.09,0.422022
0.09025,0.39149
0.0905,0.396311
0.09075,0.442205
0.091,0.445461
0.09125,0.443486
0.0915,0.437681
0.09175,0.435915
0.092,0.466375
0.09225,0.429235
0.0925,0.462567
0.09275,0.436371
0.093,0.435818
0.09325,0.49763
0.0935,0.449794
0.09375,0.485268
0.094,0.511186
0.09425,0.51396
0.0945,0.448198
0.09475,0.462151
0.095,0.414215
0.09525,0.502288
0.0955,0.412502
0.09575,0.443336
0.096,0.407984
0.09625,0.465351
0.0965,0.479591
0.09675,0.39831
0.097,0.405945
0.09725,0.43818
0.0975,0.462686
0.09775,0.488573
0.098,0.491617
0.09825,0.435607
0.0985,0.509867
0.09875,0.468277
0.099,0.467198
0.09925,0.477818
0.0995,0.517326
0.09975,0.514207
0.1,0.527201
0.10025,0.545923
0.1005,0.569007
0.10075,0.569445
0.101,0.569855
0.10125,0.570318
0.1015,0.607677
0.10175,0.607889
0.102,0.565995
0.10225,0.64485
0.1025,0.585027
0.10275,0.564964
0.103,0.649348
0.10325,0.664074
0.1035,0.601898
0.10375,0.578381
0.104,0.643923
0.10425,0.555728
0.1045,0.598652
0.10475,0.634384
0.105,0.608422
0.10525,0.554468
0.1055,0.604314
0.10575,0.59254
0.106,0.640746
0.10625,0.542837
0.1065,0.588967
0.10675,0.573166
0.107,0.577564
0.10725,0.60798
0.1075,0.608924
0.10775,0.595632
0.108,0.567493
0.10825,0.611163
0.1085,0.620007
0.10875,0.640211
0.109,0.623416
0.10925,0.638716
0.1095,0.621305
0.10975,0.608292
0.11,0.650739
0.11025,0.635284
0.1105,0.635951
0.11075,0.605178
0.111,0.593921
0.11125,0.588712
0.1115,0.601342
0.11175,0.618938
0.112,0.599233
0.11225,0.601435
0.1125,0.573625
0.11275,0.54866
0.113,0.517593
0.11325,0.532829
0.1135,0.540413
0.11375,0.518698
0.114,0.532097
0.11425,0.537712
0.1145,0.476745
0.11475,0.546112
0.115,0.567216
0.11525,0.517652
0.1155,0.580697
0.11575,0.52748
0.116,0.618521
0.11625,0.560462
0.1165,0.596578
0.11675,0.607914
0.117,0.621471
0.11725,0.640101
0.1175,0.653079
0.11775,0.648211
0.118,0.654153
0.11825,0.611079
0.1185,0.657249
0.11875,0.62875
0.119,0.694
0.11925,0.68248
0.1195,0.62767
0.11975,0.666907
0.12,0.645425
0.12025,0.649811
0.1205,0.667688
0.12075,0.672153
0.121,0.663945
0.12125,0.666861
0.1215,0.686977
0.12175,0.689132
0.122,0.625428
0.12225,0.643547
0.1225,0.650155
0.12275,0.598521
0.123,0.629598
0.12325,0.644226
0.1235,0.692401
0.12375,0.704531
0.124,0.669424
0.12425,0.736737
0.1245,0.659149
0.12475,0.746156
0.125,0.762136
0.12525,0.704394
0.1255,0.723337
0.12575,0.789959
0.126,0.718067
0.12625,0.743126
0.1265,0.770379
0.12675,0.741095
0.127,0.701486
0.12725,0.78503
0.1275,0.753821
0.12775,0.716732
0.128,0.769918
0.12825,0.732357
0.1285,0.684109
0.12875,0.71983
0.129,0.702657
0.12925,0.68623
0.1295,0.667452
0.12975,0.650181
0.13,0.675316
0.13025,0.669099
0.1305,0.633721
0.13075,0.624152
0.131,0.667303
0.13125,0.645675
0.1315,0.654776
0.13175,0.614972
0.132,0.592267
0.13225,0.670773
0.1325,0.600173
0.13275,0.635855
0.133,0.612501
0.13325,0.631345
0.1335,0.638254
0.13375,0.626147
0.134,0.640214
0.13425,0.726373
0.1345,0.706961
0.13475,0.668162
0.135,0.747516
0.13525,0.654996
0.1355,0.641171
0.13575,0.692934
0.136,0.642696
0.13625,0.742616
0.1365,0.704911
0.13675,0.651687
0.137,0.678684
0.13725,0.69797
0.1375,0.685882
0.13775,0.677177
0.138,0.636485
0.13825,0.674285
0.1385,0.653207
0.13875,0.646432
0.139,0.671718
0.13925,0.623511
0.1395,0.634504
0.13975,0.672565
0.14,0.679429
0.14025,0.698094
0.1405,0.701673
0.14075,0.67912
0.141,0.717906
0.14125,0.703551
0.1415,0.710104
0.14175,0.717541
0.142,0.724222
0.14225,0.771495
0.1425,0.75915
0.14275,0.78356
0.143,0.767044
0.14325,0.730663
0.1435,0.818941
0.14375,0.769867
0.144,0.765356
0.14425,0.789173
0.1445,0.764343
0.14475,0.797719
0.145,0.754086
0.14525,0.77052
0.1455,0.762866
0.14575,0.712298
0.146,0.732127
0.14625,0.747049
0.1465,0.746774
0.14675,0.673845
0.147,0.699768
0.14725,0.736584
0.1475,0.672737
0.14775,0.663223
0.148,0.700612
0.14825,0.711403
0.1485,0.72251
0.14875,0.709957
0.149,0.673531
0.14925,0.656767
0.1495,0.681269
0.14975,0.689377
0.15,0.688459
0.15025,0.69282
0.1505,0.694431
0.15075,0.683837
0.151,0.70331
0.15125,0.672066
0.1515,0.692497
0.15175,0.693313
0.152,0.665641
0.15225,0.699307
0.1525,0.731287
0.15275,0.644674
0.153,0.691882
0.15325,0.680631
0.1535,0.634988
0.15375,0.663384
0.154,0.640684
0.15425,0.619254
0.1545,0.59553
0.15475,0.606683
0.155,0.581436
0.15525,0.57012
0.1555,0.564521
0.15575,0.555024
0.156,0.516627
0.15625,0.635249
0.1565,0.59926
0.15675,0.583341
0.157,0.633512
0.15725,0.602237
0.1575,0.576145
0.15775,0.572028
0.158,0.611092
0.15825,0.6418
0.1585,0.625956
0.15875,0.624096
0.159,0.637188
0.15925,0.647357
0.1595,0.693089
0.15975,0.680622
0.16,0.668755
0.16025,0.667766
0.1605,0.737391
0.16075,0.688081
0.161,0.689591
0.16125,0.66131
0.1615,0.707094
0.16175,0.646561
0.162,0.665782
0.16225,0.696813
0.1625,0.644775
0.16275,0.643606
0.163,0.676841
0.16325,0.668773
0.1635,0.636234
0.16375,0.708013
0.164,0.62777
0.16425,0.660365
0.1645,0.695822
0.16475,0.649536
0.165,0.649686
0.16525,0.563627
0.1655,0.628467
0.16575,0.685149
0.166,0.653875
0.16625,0.628459
0.1665,0.686439
0.16675,0.625114
0.167,0.647836
0.16725,0.629501
0.1675,0.632307
0.16775,0.675574
0.168,0.654117
0.16825,0.650743
0.1685,0.702049
0.16875,0.676465
0.169,0.674084
0.16925,0.664142
0.1695,0.611675
0.16975,0.597849
0.17,0.613177
0.17025,0.620321
0.1705,0.582832
0.17075,0.578769
0.171,0.566346
0.17125,0.5646
0.1715,0.545941
0.17175,0.519774
0.172,0.533246
0.17225,0.500623
0.1725,0.508603
0.17275,0.465364
0.173,0.52759
0.17325,0.554819
0.1735,0.507044
0.17375,0.447747
0.174,0.453736
0.17425,0.515806
0.1745,0.445055
0.17475,0.504786
0.175,0.548728
0.17525,0.551159
0.1755,0.560213
0.17575,0.463903
0.176,0.484931
0.17625,0.485761
0.1765,0.57233
0.17675,0.494355
0.177,0.514406
0.17725,0.494717
0.1775,0.543099
0.17775,0.505936
0.178,0.536184
0.17825,0.512292
0.1785,0.496427
0.17875,0.504498
0.179,0.512602
0.17925,0.508391
0.1795,0.494125
0.17975,0.506637
0.18,0.502197
0.18025,0.460941
0.1805,0.499821
0.18075,0.449077
0.181,0.46341
0.18125,0.458589
0.1815,0.477292
0.18175,0.450129
0.182,0.450913
0.18225,0.43323
0.1825,0.445953
0.18275,0.518568
0.183,0.549767
0.18325,0.549202
0.1835,0.529107
0.18375,0.559029
0.184,0.507639
0.18425,0.522595
0.1845,0.505459
0.18475,0.515628
0.185,0.514924
0.18525,0.478424
0.1855,0.508747
0.18575,0.53827
0.186,0.535889
0.18625,0.584831
0.1865,0.497644
0.18675,0.462716
0.187,0.459609
0.18725,0.49029
0.1875,0.48409
0.18775,0.457322
0.188,0.448327
0.18825,0.440524
0.1885,0.416354
0.18875,0.443073
0.189,0.395451
0.18925,0.412231
0.1895,0.357985
0.18975,0.405415
0.19,0.358277
0.19025,0.349911
0.1905,0.369728
0.19075,0.34008
0.191,0.377002
0.19125,0.356496
0.1915,0.366586
0.19175,0.335703
0.192,0.365956
0.19225,0.332009
0.1925,0.387832
0.19275,0.384531
0.193,0.310221
0.19325,0.390756
0.1935,0.384877
0.19375,0.315471
0.194,0.387159
0.19425,0.276769
0.1945,0.327449
0.19475,0.318451
0.195,0.246686
0.19525,0.262427
0.1955,0.296958
0.19575,0.333487
0.196,0.253993
0.19625,0.246642
0.1965,0.295021
0.19675,0.273703
0.197,0.185297
0.19725,0.212354
0.1975,0.250955
0.19775,0.233229
0.198,0.236869
0.19825,0.271593
0.1985,0.227828
0.19875,0.270399
0.199,0.278586
0.19925,0.284525
0.1995,0.262543
0.19975,0.274374
0.2,0.281172
0.20025,0.296044
0.2005,0.291148
0.20075,0.324678
0.201,0.296306
0.20125,0.326499
0.2015,0.26365
0.20175,0.271624
0.202,0.362217
0.20225,0.292886
0.2025,0.328553
0.20275,0.296498
0.203,0.2845
0.20325,0.335028
0.2035,0.303139
0.20375,0.260153
0.204,0.318473
0.20425,0.271389
0.2045,0.250213
0.20475,0.227923
0.205,0.276354
0.20525,0.286146
0.2055,0.205308
0.20575,0.148199
0.206,0.229646
0.20625,0.177847
0.2065,0.15771
0.20675,0.134187
0.207,0.187102
0.20725,0.228313
0.2075,0.219114
0.20775,0.194992
0.208,0.208718
0.20825,0.180438
0.2085,0.214054
0.20875,0.201367
0.209,0.201952
0.20925,0.216028
0.2095,0.177241
0.20975,0.212251
0.21,0.205339
0.21025,0.178521
0.2105,0.196341
0.21075,0.167862
0.211,0.162114
0.21125,0.139902
0.2115,0.17445
0.21175,0.133512
0.212,0.111522
0.21225,0.134041
0.2125,0.0642322
0.21275,0.049022
0.213,0.0737578
0.21325,0.0766908
0.2135,-0.0261265
0.21375,0.000976126
0.214,-0.0424572
0.21425,0.0661943
0.2145,0.0334751
0.21475,-0.0151211
0.215,0.0283133
0.21525,-0.00320504
0.2155,-0.00591113
0.21575,0.0295441
0.216,-0.0182004
0.21625,-0.0165977
0.2165,0.0534936
0.21675,0.0291758
0.217,0.0336145
0.21725,0.0100312
0.2175,0.0709115
0.21775,0.0664701
0.218,0.0944069
0.21825,9.95E-02
0.2185,0.0418154
0.21875,0.0838857
0.219,0.106367
0.21925,0.0911271
0.2195,0.0507461
0.21975,0.0830424
0.22,0.0494506
0.22025,0.0363625
0.2205,0.0452897
0.22075,0.0314752
0.221,0.0456114
0.22125,0.00635235
0.2215,0.0186359
0.22175,0.0170586
0.222,0.0392908
0.22225,0.0208458
0.2225,-0.00247486
0.22275,-0.0119547
0.223,-0.0172857
0.22325,0.009781
0.2235,0.03984
0.22375,0.0319058
0.224,-0.0373202
0.22425,0.0254572
0.2245,0.00153225
0.22475,-0.0136769
0.225,0.00651458
0.22525,0.0126876
0.2255,0.0786368
0.22575,0.0545775
0.226,-0.00509439
0.22625,0.0965111
0.2265,0.0255151
0.22675,0.0226241
0.227,0.024387
0.22725,0.0860235
0.2275,0.0409361
0.22775,-0.0238834
0.228,-0.000312674
0.22825,-0.00864217
0.2285,-0.00668729
0.22875,-0.0326454
0.229,-0.0460356
0.22925,-0.0620501
0.2295,-0.0666297
0.22975,-0.0835035
0.23,-0.111525
0.23025,-0.128767
0.2305,-0.131629
0.23075,-0.125862
0.231,-0.177226
0.23125,-0.126278
0.2315,-0.173771
0.23175,-0.132549
0.232,-0.156643
0.23225,-0.124079
0.2325,-0.181761
0.23275,-0.126756
0.233,-0.15454
0.23325,-0.19733
0.2335,-0.177337
0.23375,-0.163724
0.234,-0.176074
0.23425,-0.107105
0.2345,-0.129692
0.23475,-0.215781
0.235,-0.169944
0.23525,-0.130379
0.2355,-0.0822445
0.23575,-0.128983
0.236,-0.130627
0.23625,-0.189599
0.2365,-0.118663
0.23675,-0.189508
0.237,-0.158919
0.23725,-0.167413
0.2375,-0.196087
0.23775,-0.173893
0.238,-0.232101
0.23825,-0.188062
0.2385,-0.206576
0.23875,-0.238883
0.239,-0.247594
0.23925,-0.239226
0.2395,-0.222228
0.23975,-0.211523
0.24,-0.247553
0.24025,-0.175918
0.2405,-0.1961
0.24075,-0.18502
0.241,-0.170679
0.24125,-0.186485
0.2415,-0.187577
0.24175,-0.158044
0.242,-0.158175
0.24225,-0.13396
0.2425,-0.137404
0.24275,-0.158832
0.243,-0.140797
0.24325,-0.0893828
0.2435,-0.191721
0.24375,-0.151624
0.244,-0.145898
0.24425,-0.179057
0.2445,-0.146166
0.24475,-0.157304
0.245,-0.138898
0.24525,-0.134158
0.2455,-0.193094
0.24575,-0.179627
0.246,-0.148815
0.24625,-0.2084
0.2465,-0.18956
0.24675,-0.18111
0.247,-0.239421
0.24725,-0.187433
0.2475,-0.248879
0.24775,-0.251865
0.248,-0.271272
0.24825,-0.205877
0.2485,-0.242868
0.24875,-0.240175
0.249,-0.242766
0.24925,-0.259303
0.2495,-0.251816
0.24975,-0.254992
0.25,-0.249846
0.25025,-0.244884
0.2505,-0.255707
0.25075,-0.239874
0.251,-0.23643
0.25125,-0.257874
0.2515,-0.227091
0.25175,-0.244908
0.252,-0.244963
0.25225,-0.273994
0.2525,-0.214183
0.25275,-0.250278
0.253,-0.286836
0.25325,-0.30319
0.2535,-0.272103
0.25375,-0.306925
0.254,-0.277787
0.25425,-0.307845
0.2545,-0.342004
0.25475,-0.286226
0.255,-0.368483
0.25525,-0.306588
0.2555,-0.328126
0.25575,-0.31487
0.256,-0.348351
0.25625,-0.375139
0.2565,-0.348285
0.25675,-0.297989
0.257,-0.355818
0.25725,-0.365326
0.2575,-0.358612
0.25775,-0.318518
0.258,-0.295842
0.25825,-0.305051
0.2585,-0.295584
0.25875,-0.303352
0.259,-0.279144
0.25925,-0.260366
0.2595,-0.255245
0.25975,-0.239247
0.26,-0.230052
0.26025,-0.249622
0.2605,-0.22623
0.26075,-0.250065
0.261,-0.271419
0.26125,-0.215469
0.2615,-0.263252
0.26175,-0.258391
0.262,-0.230097
0.26225,-0.270704
0.2625,-0.270955
0.26275,-0.258371
0.263,-0.241139
0.26325,-0.245614
0.2635,-0.342151
0.26375,-0.325095
0.264,-0.272448
0.26425,-0.364258
0.2645,-0.317407
0.26475,-0.295144
0.265,-0.340029
0.26525,-0.349524
0.2655,-0.326043
0.26575,-0.220668
0.266,-0.327286
0.26625,-0.253093
0.2665,-0.222829
0.26675,-0.265567
0.267,-0.242563
0.26725,-0.221212
0.2675,-0.278618
0.26775,-0.231137
0.268,-0.234644
0.26825,-0.18926
0.2685,-0.256803
0.26875,-0.22007
0.269,-0.276006
0.26925,-0.296312
0.2695,-0.260269
0.26975,-0.260745
0.27,-0.290327
0.27025,-0.309004
0.2705,-0.294225
0.27075,-0.309032
0.271,-0.320467
0.27125,-0.362254
0.2715,-0.367046
0.27175,-0.347986
0.272,-0.364433
0.27225,-0.400583
0.2725,-0.355149
0.27275,-0.419021
0.273,-0.375767
0.27325,-0.390286
0.2735,-0.398974
0.27375,-0.35389
0.274,-0.384409
0.27425,-0.386289
0.2745,-0.308807
0.27475,-0.345133
0.275,-0.306283
0.27525,-0.335444
0.2755,-0.370826
0.27575,-0.337541
0.276,-0.300472
0.27625,-0.31565
0.2765,-0.338028
0.27675,-0.339639
0.277,-0.280333
0.27725,-0.295067
0.2775,-0.264439
0.27775,-0.254886
0.278,-0.313612
0.27825,-0.288724
0.2785,-0.277657
0.27875,-0.303646
0.279,-0.31791
0.27925,-0.306435
0.2795,-0.312961
0.27975,-0.315465
0.28,-0.315765
0.28025,-0.294943
0.2805,-0.335353
0.28075,-0.351725
0.281,-0.323291
0.28125,-0.35833
0.2815,-0.280688
0.28175,-0.249561
0.282,-0.330662
0.28225,-0.290449
0.2825,-0.294399
0.28275,-0.300937
0.283,-0.21523
0.28325,-0.219238
0.2835,-0.271958
0.28375,-0.2421
0.284,-0.17836
0.28425,-0.236364
0.2845,-0.180138
0.28475,-0.145877
0.285,-0.167023
0.28525,-0.142102
0.2855,-0.227739
0.28575,-0.239013
0.286,-0.168786
0.28625,-0.224225
0.2865,-0.175823
0.28675,-0.178474
0.287,-0.237852
0.28725,-0.207328
0.2875,-0.229641
0.28775,-0.231799
0.288,-0.260177
0.28825,-0.255961
0.2885,-0.269333
0.28875,-0.263683
0.289,-0.294781
0.28925,-0.309965
0.2895,-0.290943
0.28975,-0.322194
0.29,-0.287737
0.29025,-0.308141
0.2905,-0.293704
0.29075,-0.275617
0.291,-0.288065
0.29125,-0.268664
0.2915,-0.254757
0.29175,-0.249438
0.292,-0.274224
0.29225,-0.270529
0.2925,-0.264855
0.29275,-0.200304
0.293,-0.221142
0.29325,-0.240651
0.2935,-0.210325
0.29375,-0.301363
0.294,-0.228052
0.29425,-0.231511
0.2945,-0.223597
0.29475,-0.243001
0.295,-0.289852
0.29525,-0.257869
0.2955,-0.255671
0.29575,-0.239556
0.296,-0.278519
0.29625,-0.293951
0.2965,-0.234505
0.29675,-0.295941
0.297,-0.297174
0.29725,-0.288757
0.2975,-0.330728
0.29775,-0.246081
0.298,-0.274451
0.29825,-0.249261
0.2985,-0.248857
0.29875,-0.250494
0.299,-0.24611
0.29925,-0.226897
0.2995,-0.225322
0.29975,-0.200652
0.3,-0.195946
0.30025,-0.186083
0.3005,-0.159013
0.30075,-0.150779
0.301,-0.15688
0.30125,-0.120634
0.3015,-0.143396
0.30175,-0.0974314
0.302,-0.0943703
0.30225,-0.147374
0.3025,-0.100191
0.30275,-0.169838
0.303,-0.11817
0.30325,-0.147248
0.3035,-0.09058
0.30375,-0.105826
0.304,-0.150344
0.30425,-0.0801088
0.3045,-0.171583
0.30475,-0.127702
0.305,-0.136079
0.30525,-0.154263
0.3055,-0.164403
0.30575,-0.187922
0.306,-0.148839
0.30625,-0.14443
0.3065,-0.14802
0.30675,-0.179464
0.307,-0.191501
0.30725,-0.166368
0.3075,-0.106723
0.30775,-0.131049
0.308,-0.140825
0.30825,-0.0942934
0.3085,-0.102507
0.30875,-0.0980728
0.309,-0.102802
0.30925,-0.0638269
0.3095,-0.0950528
0.30975,-0.110981
0.31,-0.122192
0.31025,-0.114625
0.3105,-0.121192
0.31075,-0.100477
0.311,-0.0798052
0.31125,-0.115844
0.3115,-0.118565
0.31175,-0.132928
0.312,-0.143552
0.31225,-0.13054
0.3125,-0.119198
0.31275,-0.189669
0.313,-0.135718
0.31325,-0.196368
0.3135,-0.153085
0.31375,-0.138491
0.314,-0.120804
0.31425,-0.226424
0.3145,-0.156366
0.31475,-0.144031
0.315,-0.234935
0.31525,-0.166748
0.3155,-0.168845
0.31575,-0.142379
0.316,-0.192072
0.31625,-0.148393
0.3165,-0.123778
0.31675,-0.116255
0.317,-0.13178
0.31725,-0.0678737
0.3175,-0.0601106
0.31775,-0.102079
0.318,-0.0163947
0.31825,-0.0472802
0.3185,-0.0732149
0.31875,-0.0217079
0.319,-0.0522032
0.31925,-0.0229389
0.3195,-0.0120166
0.31975,-0.0187814
0.32,-0.0245778
0.32025,-0.0310017
0.3205,-0.034876
0.32075,-0.0210797
0.321,-0.0261471
0.32125,-0.057753
0.3215,-0.0290998
0.32175,-0.0503123
0.322,-0.0447515
0.32225,-0.0594138
0.3225,-0.0222125
0.32275,-0.0442498
0.323,-0.0664829
0.32325,6.30E-03
0.3235,0.0102855
0.32375,-0.0648719
0.324,-0.00374612
0.32425,-0.0468595
0.3245,0.0103154
0.32475,0.0629286
0.325,0.0438328
0.32525,0.0011791
0.3255,0.0242744
0.32575,0.0385085
0.326,0.0320861
0.32625,0.0302096
0.3265,0.0826022
0.32675,0.0670029
0.327,0.100638
0.32725,0.0320682
0.3275,0.125431
0.32775,0.0611226
0.328,0.102834
0.32825,0.043217
0.3285,0.0800594
0.32875,0.0537801
0.329,0.0210909
0.32925,0.0165543
0.3295,0.00694524
0.32975,0.0072561
0.33,0.0200633
0.33025,-0.00995066
0.3305,-0.0436118
0.33075,-0.0415027
0.331,-0.0309788
0.33125,-0.0256459
0.3315,0.0123033
0.33175,-0.0249285
0.332,-0.0310047
0.33225,-0.00881967
0.3325,-0.0136834
0.33275,-0.015633
0.333,0.0162596
0.33325,0.0298957
0.3335,0.0233908
0.33375,0.0292773
0.334,0.0268765
0.33425,0.0535165
0.3345,0.0934095
0.33475,0.0660052
0.335,0.0866047
0.33525,0.0233876
0.3355,0.0610229
0.33575,0.0450297
0.336,0.0448174
0.33625,0.0601749
0.3365,0.0197671
0.33675,0.0425076
0.337,0.0756556
0.33725,0.0511012
0.3375,0.0320344
0.33775,0.0293584
0.338,0.037445
0.33825,0.0193173
0.3385,0.0286656
0.33875,0.00301035
0.339,0.0474701
0.33925,0.0134913
0.3395,0.0624139
0.33975,0.0336417
0.34,0.0105697
0.34025,0.0264383
0.3405,0.0805037
0.34075,0.0710158
0.341,0.0904651
0.34125,0.0878923
0.3415,0.117753
0.34175,0.104542
0.342,0.112685
0.34225,0.147572
0.3425,0.173615
0.34275,0.152285
0.343,0.226684
0.34325,0.224632
0.3435,0.147946
0.34375,0.218889
0.344,0.144214
0.34425,0.200991
0.3445,0.198141
0.34475,0.140369
0.345,0.169357
0.34525,0.149409
0.3455,0.14062
0.34575,0.200844
0.346,0.1132
0.34625,0.153508
0.3465,0.17986
0.34675,0.0975829
0.347,0.168959
0.34725,0.0814274
0.3475,0.125801
0.34775,0.120363
0.348,0.131481
0.34825,0.0637352
0.3485,0.0815922
0.34875,0.116579
0.349,0.101367
0.34925,0.13113
0.3495,0.130995
0.34975,0.127903
0.35,0.127369
0.35025,0.123232
0.3505,0.129467
0.35075,0.133668
0.351,0.162848
0.35125,0.123367
0.3515,0.14217
0.35175,0.173242
0.352,0.149566
0.35225,0.139541
0.3525,0.179543
0.35275,0.153219
0.353,0.128277
0.35325,0.119793
0.3535,0.111617
0.35375,0.107515
0.354,0.128389
0.35425,0.0545285
0.3545,0.122953
0.35475,0.119996
0.355,0.0875559
0.35525,0.0897594
0.3555,0.00573694
0.35575,0.0352887
0.356,0.0718551
0.35625,0.0330656
0.3565,0.0568581
0.35675,0.0202904
0.357,0.126298
0.35725,0.0591888
0.3575,0.0685821
0.35775,0.142829
0.358,0.128462
0.35825,0.0972133
0.3585,0.132593
0.35875,0.163884
0.359,0.145048
0.35925,0.14943
0.3595,0.173136
0.35975,0.194808
0.36,0.173837
0.36025,0.172141
0.3605,0.216365
0.36075,0.234211
0.361,0.235673
0.36125,0.200101
0.3615,0.227074
0.36175,0.214018
0.362,0.201874
0.36225,0.203276
0.3625,0.193348
0.36275,0.219907
0.363,0.227997
0.36325,0.185339
0.3635,0.132581
0.36375,0.152021
0.364,0.154388
0.36425,0.236789
0.3645,0.21309
0.36475,0.160994
0.365,0.208868
0.36525,0.126255
0.3655,0.127273
0.36575,0.216549
0.366,0.170134
0.36625,0.194911
0.3665,0.204369
0.36675,0.214652
0.367,0.210592
0.36725,0.225314
0.3675,0.21767
0.36775,0.207933
0.368,0.19712
0.36825,0.248779
0.3685,0.229855
0.36875,0.238554
0.369,0.263034
0.36925,0.221304
0.3695,0.197503
0.36975,0.216868
0.37,0.184167
0.37025,0.175145
0.3705,0.170875
0.37075,0.16107
0.371,0.137768
0.37125,0.139758
0.3715,0.0960811
0.37175,0.12718
0.372,0.131152
0.37225,0.0942771
0.3725,0.10874
0.37275,0.0782743
0.373,0.0844471
0.37325,0.100688
0.3735,0.0933735
0.37375,0.105602
0.374,0.100087
0.37425,0.100284
0.3745,0.121907
0.37475,0.118012
0.375,0.104829
0.37525,0.114875
0.3755,0.124661
0.37575,0.158396
0.376,0.197065
0.37625,0.108683
0.3765,0.103479
0.37675,0.202656
0.377,0.160405
0.37725,0.137343
0.3775,0.181186
0.37775,0.123586
0.378,0.18474
0.37825,0.192549
0.3785,0.132767
0.37875,0.154654
0.379,0.136395
0.37925,0.130813
0.3795,0.151296
0.37975,0.138052
0.38,0.145788
0.38025,0.132796
0.3805,0.150126
0.38075,0.139976
0.381,0.13795
0.38125,0.163134
0.3815,0.13109
0.38175,0.131852
0.382,0.10048
0.38225,0.210018
0.3825,0.128193
0.38275,0.132298
0.383,0.174489
0.38325,0.176059
0.3835,0.164781
0.38375,0.204518
0.384,0.20589
0.38425,0.263159
0.3845,0.242773
0.38475,0.227167
0.385,0.188477
0.38525,0.226143
0.3855,0.272266
0.38575,0.238439
0.386,0.216573
0.38625,0.257969
0.3865,0.270365
0.38675,0.227934
0.387,0.187141
0.38725,0.206147
0.3875,0.166772
0.38775,0.137994
0.388,0.175898
0.38825,0.137466
0.3885,0.0993021
0.38875,0.101775
0.389,0.135089
0.38925,0.120594
0.3895,0.126386
0.38975,0.0995958
0.39,0.126886
0.39025,0.12169
0.3905,0.0968485
0.39075,0.0772594
0.391,0.0637869
0.39125,0.112361
0.3915,0.0918166
0.39175,0.109836
0.392,0.108937
0.39225,0.087811
0.3925,0.0725714
0.39275,0.0883444
0.393,0.161193
0.39325,0.148144
0.3935,0.153341
0.39375,0.126747
0.394,0.132117
0.39425,0.136479
0.3945,0.119122
0.39475,0.0871184
0.395,0.132195
0.39525,0.06722
0.3955,0.103712
0.39575,0.0718711
0.396,0.099982
0.39625,0.0810594
0.3965,0.051557
0.39675,-0.0233077
0.397,0.0399915
0.39725,0.0694002
0.3975,-0.00768129
0.39775,0.0382882
0.398,0.0192315
0.39825,0.0175687
0.3985,0.0315203
0.39875,7.58E-02
0.399,0.0374511
0.39925,0.0774858
0.3995,0.0764297
0.39975,0.07536
0.4,0.0930574
0.40025,0.112347
0.4005,0.119515
0.40075,0.127079
0.401,0.12445
0.40125,0.101426
0.4015,0.156772
0.40175,0.111709
0.402,0.215546
0.40225,0.119083
0.4025,0.141621
0.40275,0.110714
0.403,0.165239
0.40325,0.10167
0.4035,0.131212
0.40375,0.180883
0.404,0.0963827
0.40425,0.101422
0.4045,0.072807
0.40475,0.136249
0.405,0.0905641
0.40525,0.100499
0.4055,0.0636402
0.40575,0.10219
0.406,0.0771641
0.40625,0.0953564
0.4065,0.0962387
0.40675,0.0409453
0.407,0.085333
0.40725,0.117028
0.4075,0.0301189
0.40775,0.0864924
0.408,0.0708518
0.40825,0.100995
0.4085,0.111284
0.40875,0.100138
0.409,0.0804756
0.40925,0.0772741
0.4095,0.057402
0.40975,0.0810783
0.41,0.0838383
0.41025,0.0761571
0.4105,0.100242
0.41075,0.0467499
0.411,0.0686379
0.41125,0.0430288
0.4115,0.0173746
0.41175,0.0335013
0.412,0.0271984
0.41225,0.0475378
0.4125,-0.0250248
0.41275,0.0118258
0.413,-0.0162158
0.41325,-0.0614601
0.4135,0.00767273
0.41375,-0.0870599
0.414,-0.0214092
0.41425,-0.0621672
0.4145,-0.0333226
0.41475,-0.0948525
0.415,-0.00155727
0.41525,-0.0474735
0.4155,-0.0426818
0.41575,-0.0762003
0.416,-0.0370511
0.41625,-0.064731
0.4165,-0.00980942
0.41675,-0.0109047
0.417,-0.0532166
0.41725,0.0348199
0.4175,-0.0208114
0.41775,-0.0112451
0.418,0.00834718
0.41825,0.0304637
0.4185,0.0665115
0.41875,0.0719147
0.419,0.0418174
0.41925,0.00470369
0.4195,0.0515224
0.41975,0.0405561
0.42,0.0315373
0.42025,0.0302173
0.4205,0.0272349
0.42075,0.0295235
0.421,0.0238966
0.42125,0.000950331
0.4215,0.016952
0.42175,0.0382799
0.422,-0.00108779
0.42225,-0.0526904
0.4225,-0.0278566
0.42275,0.0292221
0.423,0.0435302
0.42325,0.0492456
0.4235,0.00206131
0.42375,0.0101161
0.424,0.0292078
0.42425,0.0712804
0.4245,0.048979
0.42475,0.0714134
0.425,0.0751643
0.42525,0.0529803
0.4255,0.0122928
0.42575,0.0559148
0.426,0.0107413
0.42625,0.0695918
0.4265,0.105945
0.42675,0.123332
0.427,0.0605947
0.42725,0.0241569
0.4275,0.0935085
0.42775,0.0405373
0.428,0.0343278
0.42825,0.0490374
0.4285,-0.0163028
0.42875,0.0165416
0.429,0.00811961
0.42925,-0.00512469
0.4295,-0.0275205
0.42975,-0.0189631
0.43,-0.0396998
0.43025,-0.0708967
0.4305,-0.0364135
0.43075,-0.0648258
0.431,-0.0926174
0.43125,-0.0682177
0.4315,-0.0563205
0.43175,-0.114352
0.432,-0.0608535
0.43225,-0.0796665
0.4325,-0.078967
0.43275,-0.082864
0.433,-0.100707
0.43325,-0.0578312
0.4335,-0.0613544
0.43375,-0.0559464
0.434,-0.104951
0.43425,-0.0681927
0.4345,-0.0575972
0.43475,-0.0448133
0.435,-0.0958209
0.43525,-0.00908161
0.4355,-0.103542
0.43575,-0.0226708
0.436,-0.0328703
0.43625,-0.0168235
0.4365,-0.100224
0.43675,-0.0530338
0.437,-0.109146
0.43725,-0.0476424
0.4375,-6.15E-02
0.43775,-0.0980221
0.438,-0.0931849
0.43825,-0.116238
0.4385,-0.103597
0.43875,-0.064647
0.439,-0.0863692
0.43925,-0.109331
0.4395,-0.102758
0.43975,-0.0829099
0.44,-0.0699966
0.44025,-0.104369
0.4405,-0.0609147
0.44075,-0.0633023
0.441,-0.0638845
0.44125,-0.0421963
0.4415,-0.0425483
0.44175,-0.0370907
0.442,-0.00152557
0.44225,-0.0369731
0.4425,0.0395516
0.44275,-0.0412936
0.443,0.0208955
0.44325,-0.0293947
0.4435,-0.0201275
0.44375,0.016912
0.444,0.0783208
0.44425,0.0368747
0.4445,0.014563
0.44475,0.0342982
0.445,0.018396
0.44525,0.00119026
0.4455,-0.0402012
0.44575,0.0116915
0.446,0.00697085
0.44625,-0.041981
0.4465,-0.00103233
0.44675,-0.0805889
0.447,-0.0726784
0.44725,-0.0408631
0.4475,-0.0904117
0.44775,-0.0830223
0.448,-0.0528692
0.44825,-0.101743
0.4485,-0.121116
0.44875,-0.0703736
0.449,-0.0995529
0.44925,-0.0506155
0.4495,-0.0740433
0.44975,-0.0760132
0.45,-0.0713941
0.45025,-0.0709959
0.4505,-0.061986
0.45075,-0.0575374
0.451,-0.0507497
0.45125,-0.0782168
0.4515,-0.0285786
0.45175,-0.0818351
0.452,-0.113281
0.45225,-0.0475227
0.4525,-0.0676008
0.45275,-0.0757739
0.453,-0.113268
0.45325,-0.125954
0.4535,-0.140813
0.45375,-0.148306
0.454,-0.15146
0.45425,-0.164214
0.4545,-0.157417
0.45475,-0.155293
0.455,-0.177633
0.45525,-0.142036
0.4555,-0.165597
0.45575,-0.112445
0.456,-0.212682
0.45625,-0.158059
0.4565,-0.133907
0.45675,-0.105229
0.457,-0.177135
0.45725,-0.183264
0.4575,-0.0930217
0.45775,-0.133598
0.458,-0.121189
0.45825,-0.118335
0.4585,-0.102688
0.45875,-0.0768533
0.459,-0.0642518
0.45925,-0.0837
0.4595,-0.0438637
0.45975,-0.053479
0.46,-0.0763909
0.46025,-0.0231788
0.4605,-0.0141053
0.46075,-0.00438742
0.461,-0.0045148
0.46125,-0.0244037
0.4615,0.00519214
0.46175,-0.0580964
0.462,-0.03433
0.46225,-0.0137477
0.4625,-0.0686224
0.46275,-0.0378166
0.463,-0.0725252
0.46325,-0.095884
0.4635,-0.073657
0.46375,-0.0681394
0.464,-0.0450087
0.46425,-0.147376
0.4645,-0.00830072
0.46475,-0.0975062
0.465,-0.011367
0.46525,-0.0508852
0.4655,-0.0160387
0.46575,-0.0012717
0.466,-0.0485112
0.46625,-0.0248435
0.4665,-0.00145061
0.46675,-0.0664068
0.467,-0.0374057
0.46725,-0.0294228
0.4675,0.0143724
0.46775,-0.020463
0.468,0.0182111
0.46825,-0.00428338
0.4685,0.00283598
0.46875,-0.00857155
0.469,-0.057528
0.46925,-0.0609792
0.4695,-0.0281644
0.46975,-0.0293564
0.47,-0.0438052
0.47025,-0.062385
0.4705,-0.0727511
0.47075,-0.0789448
0.471,-0.10354
0.47125,-0.105541
0.4715,-0.110912
0.47175,-0.159176
0.472,-0.144867
0.47225,-0.0889907
0.4725,-0.179178
0.47275,-0.15007
0.473,-0.136909
0.47325,-0.18141
0.4735,-0.0956109
0.47375,-0.214719
0.474,-0.124626
0.47425,-0.124782
0.4745,-0.186626
0.47475,-0.139923
0.475,-0.0861146
0.47525,-0.0980197
0.4755,-0.111718
0.47575,-0.104307
0.476,-0.0611108
0.47625,-0.0968464
0.4765,-0.063985
0.47675,-0.0734823
0.477,-0.111305
0.47725,-0.068926
0.4775,-0.0161559
0.47775,-0.026606
0.478,-0.0706073
0.47825,-0.0778782
0.4785,-0.0431448
0.47875,-0.0816663
0.479,-0.0883696
0.47925,-0.0762281
0.4795,-0.0921319
0.47975,-0.0754297
0.48,-0.104566
0.48025,-0.0748823
0.4805,-0.102526
0.48075,-0.0800785
0.481,-0.131153
0.48125,-0.0467341
0.4815,-0.0904332
0.48175,-0.04518
0.482,-0.0976159
0.48225,-0.058288
0.4825,-0.0225882
0.48275,0.0122438
0.483,-0.0339409
0.48325,0.0150937
0.4835,-0.0391871
0.48375,0.0292883
0.484,-0.0266361
0.48425,-0.0170975
0.4845,0.0714705
0.48475,0.0735076
0.485,0.0257016
0.48525,0.0722753
0.4855,0.0206659
0.48575,0.0847845
0.486,-0.0118487
0.48625,-0.00980189
0.4865,0.0650621
0.48675,0.0215836
0.487,-0.0404593
0.48725,0.00380967
0.4875,-0.00702313
0.48775,-0.0238088
0.488,-0.054254
0.48825,-0.0746105
0.4885,-0.0670183
0.48875,-0.109014
0.489,-0.102469
0.48925,-0.112908
0.4895,-0.0459369
0.48975,-0.113181
0.49,-0.0993137
0.49025,-0.0664638
0.4905,-0.10585
0.49075,-0.092687
0.491,-0.0980947
0.49125,-0.0814964
0.4915,-0.0906806
0.49175,-0.0620207
0.492,-0.0355199
0.49225,-0.0695465
0.4925,-4.54E-02
0.49275,-0.0841469
0.493,-0.00253866
0.49325,-0.0746623
0.4935,-0.0701598
0.49375,-0.0760847
0.494,-0.0865285
0.49425,-0.0391167
0.4945,-0.125956
0.49475,-0.10609
0.495,-0.0334993
0.49525,-0.0183127
0.4955,-0.0575573
0.49575,-0.123901
0.496,-0.116092
0.49625,-0.1224
0.4965,-0.0983665
0.49675,-0.102002
0.497,-0.0678366
0.49725,-0.0685744
0.4975,-0.112599
0.49775,-0.0539836
0.498,-0.12454
0.49825,-0.0892214
0.4985,-0.0600862
0.49875,-0.0709758
0.499,-0.0804357
0.49925,-0.0481046
0.4995,-0.0464192
0.49975,-0.0505202
0.5,-0.0294575
0.50025,-0.0156336
0.5005,-0.00368304
0.50075,0.0163344
0.501,-0.00371789
0.50125,-0.00661495
0.5015,0.0461669
0.50175,-0.00244313
0.502,0.0402343
0.50225,0.037003
0.5025,0.00225519
0.50275,0.0116161
0.503,0.0379097
0.50325,0.0524062
0.5035,0.0503017
0.50375,0.0801914
0.504,0.0331274
0.50425,-0.013947
0.5045,0.0383575
0.50475,-0.0405174
0.505,0.0191649
0.50525,0.0212202
0.5055,0.00386463
0.50575,-0.0317742
0.506,0.0212331
0.50625,-0.0285871
0.5065,0.00179963
0.50675,0.060276
0.507,0.0538792
0.50725,0.00379698
0.5075,-0.0139405
0.50775,0.0230521
0.508,0.0217944
0.50825,0.0280252
0.5085,0.0137146
0.50875,3.32E-02
0.509,0.0343382
0.50925,0.0342406
0.5095,0.0203102
0.50975,0.0312808
0.51,0.00758392
0.51025,0.0439376
0.5105,0.0240366
0.51075,-0.00937038
0.511,0.0406497
0.51125,-0.00872978
0.5115,0.0386008
0.51175,0.00753577
0.512,-0.0230061
0.51225,-0.0465943
0.5125,-0.0747748
0.51275,-0.0474413
0.513,-0.0473245
0.51325,-0.0500527
0.5135,-0.0491037
0.51375,-0.0583377
0.514,-0.0950092
0.51425,-0.0559079
0.5145,-0.00717463
0.51475,-0.0924633
0.515,-0.0529556
0.51525,-0.047056
0.5155,-8.70E-02
0.51575,-0.0716914
0.516,-0.0841759
0.51625,-0.0677079
0.5165,-0.0351009
0.51675,-0.0466264
0.517,-0.035747
0.51725,-4.89E-03
0.5175,0.0132441
0.51775,2.63E-02
0.518,-0.0289418
0.51825,-0.00398202
0.5185,0.0368369
0.51875,0.0593411
0.519,0.0413167
0.51925,0.0438708
0.5195,0.0163296
0.51975,0.037191
0.52,0.0351325
0.52025,0.0392707
0.5205,0.0198058
0.52075,0.0276928
0.521,0.0302172
0.52125,0.00537587
0.5215,0.00151565
0.52175,0.0342342
0.522,-0.018839
0.52225,0.0541646
0.5225,0.0156483
0.52275,0.00560155
0.523,-0.0516436
0.52325,0.0444044
0.5235,0.0553918
0.52375,0.0253233
0.524,-0.00134094
0.52425,0.0664158
0.5245,0.0159728
0.52475,0.0562812
0.525,0.0263012
0.52525,0.0311633
0.5255,0.0918608
0.52575,0.0298994
0.526,0.103729
0.52625,0.0630918
0.5265,0.0615964
0.52675,0.053186
0.527,0.0949127
0.52725,0.110559
0.5275,0.0754036
0.52775,0.0748957
0.528,0.0887192
0.52825,0.0602093
0.5285,0.0557834
0.52875,0.0472738
0.529,0.0297412
0.52925,0.0267313
0.5295,0.032162
0.52975,0.00415123
0.53,0.0193386
0.53025,-0.015865
0.5305,0.0019291
0.53075,-0.0422741
0.531,-0.0650068
0.53125,-0.0654878
0.5315,-0.0194674
0.53175,-0.0800253
0.532,-0.0562841
0.53225,-0.043269
0.5325,-0.0176359
0.53275,-0.0171921
0.533,-0.0286017
0.53325,-0.0486401
0.5335,-0.0167056
0.53375,-0.00470278
0.534,-0.0203714
0.53425,0.000885794
0.5345,0.00757679
0.53475,0.0323685
0.535,0.00100181
0.53525,0.0574033
0.5355,-0.0604854
0.53575,-0.0379066
0.536,0.0309788
0.53625,0.0652983
0.5365,0.024048
0.53675,0.0121149
0.537,-0.0146274
0.53725,-0.0335729
0.5375,-0.0134655
0.53775,-0.0382789
0.538,-0.038239
0.53825,-0.00260495
0.5385,-0.0319808
0.53875,-0.0361266
0.539,-0.023351
0.53925,-0.0099501
0.5395,0.011955
0.53975,-0.0294208
0.54,0.00125412
0.54025,-0.00317659
0.5405,0.00928918
0.54075,0.0268494
0.541,0.024058
0.54125,0.0460597
0.5415,0.0647379
0.54175,0.0614651
0.542,0.0667161
0.54225,0.0606049
0.5425,0.116683
0.54275,0.11264
0.543,0.131931
0.54325,0.0853784
0.5435,0.183718
0.54375,0.0720349
0.544,0.0785375
0.54425,0.0493065
0.5445,0.0646943
0.54475,0.0851754
0.545,0.0637561
0.54525,0.118629
0.5455,0.141184
0.54575,0.133609
0.546,0.111545
0.54625,0.110229
0.5465,0.0837905
0.54675,0.0430496
0.547,0.020034
0.54725,0.0335039
0.5475,0.0269238
0.54775,0.0181419
0.548,0.00233294
0.54825,0.00659757
0.5485,0.0398573
0.54875,0.0260249
0.549,0.0354671
0.54925,0.0419498
0.5495,0.026969
0.54975,0.0233951
0.55,0.0332127
0.55025,0.0378593
0.5505,0.0336072
0.55075,0.0372219
0.551,0.0340779
0.55125,0.0149541
0.5515,0.0571594
0.55175,0.0833577
0.552,0.0257385
0.55225,0.0458512
0.5525,-0.0152549
0.55275,0.0350346
0.553,0.0338621
0.55325,0.0137815
0.5535,-0.018869
0.55375,0.000153198
0.554,-0.0241085
0.55425,-0.039593
0.5545,0.0122346
0.55475,-0.00570458
0.555,-0.0594408
0.55525,-0.109285
0.5555,-0.0668814
0.55575,-0.0378088
0.556,-0.0133591
0.55625,0.00482509
0.5565,-0.113248
0.55675,-0.0613356
0.557,-0.0659071
0.55725,-0.0823592
0.5575,-0.0661585
0.55775,-0.00322124
0.558,-0.00408673
0.55825,-0.00386414
0.5585,-0.00103367
0.55875,0.0271432
0.559,0.0109238
0.55925,0.0170645
0.5595,0.0261216
0.55975,0.0827895
0.56,0.101035
0.56025,0.0869733
0.5605,0.055182
0.56075,0.0989344
0.561,0.0748494
0.56125,0.08683
0.5615,0.0756943
0.56175,0.0454972
0.562,0.0874211
0.56225,0.0824863
0.5625,0.0859403
0.56275,0.0534031
0.563,0.0699625
0.56325,0.044287
0.5635,0.0847059
0.56375,0.0609099
0.564,-0.0106685
0.56425,0.00347148
0.5645,0.0390726
0.56475,0.0889644
0.565,0.0802169
0.56525,0.0325937
0.5655,0.0891558
0.56575,0.0958291
0.566,0.0389893
0.56625,0.0714756
0.5665,0.0729893
0.56675,0.0862611
0.567,0.106023
0.56725,0.0998375
0.5675,0.116102
0.56775,0.103154
0.568,0.100347
0.56825,0.0375603
0.5685,0.0690871
0.56875,0.044441
0.569,0.0567032
0.56925,0.0707495
0.5695,0.0368145
0.56975,0.0383903
0.57,0.0563579
0.57025,0.0509845
0.5705,0.0240872
0.57075,0.0194431
0.571,0.00333991
0.57125,0.00729517
0.5715,-0.050313
0.57175,-8.26E-05
0.572,-0.0515573
0.57225,-0.0590104
0.5725,-0.0756274
0.57275,-0.0456389
0.573,-0.00442547
0.57325,-0.103005
0.5735,-0.0866073
0.57375,-0.030338
0.574,-0.073818
0.57425,-0.0123174
0.5745,-0.060812
0.57475,-0.0760142
0.575,-0.0424566
0.57525,-0.0337158
0.5755,-0.0321939
0.57575,-0.00722637
0.576,0.0610934
0.57625,0.0128383
0.5765,-0.0559438
0.57675,-0.0178714
0.577,-0.0201082
0.57725,0.0276748
0.5775,0.0421044
0.57775,-0.00894457
0.578,-0.00956166
0.57825,-0.0150063
0.5785,0.00219758
0.57875,0.00137202
0.579,0.0213976
0.57925,0.0118459
0.5795,0.0188975
0.57975,-0.013686
0.58,-0.012101
0.58025,-0.0239768
0.5805,-0.0380156
0.58075,-0.00613881
0.581,-0.0157454
0.58125,0.00266649
0.5815,0.0225485
0.58175,0.0462519
0.582,0.0432907
0.58225,-0.0112671
0.5825,0.0272665
0.58275,0.00940604
0.583,0.0539522
0.58325,0.0977598
0.5835,0.0915828
0.58375,0.058044
0.584,0.0907845
0.58425,0.146143
0.5845,0.0501056
0.58475,0.147965
0.585,0.11264
0.58525,0.0723968
0.5855,0.07165
0.58575,0.125414
0.586,0.10516
0.58625,0.0536499
0.5865,0.102775
0.58675,0.0227874
0.587,0.0192382
0.58725,0.0194852
0.5875,0.0467307
0.58775,0.0328716
0.588,-0.00762909
0.58825,0.0339899
0.5885,0.0174008
0.58875,0.0198074
0.589,0.00126986
0.58925,0.0130835
0.5895,-0.022634
0.58975,-0.00634824
0.59,-0.0311901
0.59025,-0.0481067
0.5905,-0.0364514
0.59075,-0.0385819
0.591,-0.0166984
0.59125,-0.0155464
0.5915,-0.0221468
0.59175,-0.00592019
0.592,-0.0336096
0.59225,-0.0198046
0.5925,0.0301008
0.59275,0.0180535
0.593,0.0678377
0.59325,0.00321311
0.5935,0.0116321
0.59375,-0.0226126
0.594,-0.0121242
0.59425,-0.0138333
0.5945,-0.017382
0.59475,-0.0252762
0.595,-0.0257106
0.59525,-0.0847201
0.5955,-0.0295277
0.59575,-0.0504176
0.596,-0.0508354
0.59625,-0.0681469
0.5965,-0.0439605
0.59675,-0.0385116
0.597,-0.0179036
0.59725,-0.0509115
0.5975,-0.00889984
0.59775,-0.0228295
0.598,-0.03644
0.59825,-0.0323736
0.5985,-0.0735114
0.59875,-0.0320865
0.599,-0.0506942
0.59925,-0.0109488
0.5995,-0.0315071
0.59975,-0.00094385
0.6,0.00360655
0.60025,0.011025
0.6005,0.0340729
0.60075,0.0166312
0.601,0.00959021
0.60125,0.0886346
0.6015,0.0904771
0.60175,0.0803094
0.602,0.0919038
0.60225,0.0656825
0.6025,0.0494619
0.60275,0.06852
0.603,0.0908535
0.60325,0.0417841
0.6035,0.025119
0.60375,0.0547046
0.604,0.0375223
0.60425,0.0147062
0.6045,0.0167804
0.60475,0.0388575
0.605,-0.00826773
0.60525,0.0608615
0.6055,0.0538047
0.60575,0.0739375
0.606,0.0334544
0.60625,-0.000926198
0.6065,-0.0362339
0.60675,4.38E-02
0.607,0.0386734
0.60725,-0.0242562
0.6075,0.010954
0.60775,-0.00216171
0.608,0.0498442
0.60825,0.00953057
0.6085,0.0346576
0.60875,0.0149307
0.609,0.0350325
0.60925,0.00679116
0.6095,0.0656455
0.60975,0.0394516
0.61,0.0449487
0.61025,0.0195694
0.6105,0.0177797
0.61075,-0.0194772
0.611,-0.000404615
0.61125,0.0143171
0.6115,0.00401251
0.61175,-0.0172803
0.612,-0.00687685
0.61225,-0.0236809
0.6125,-0.0552771
0.61275,-0.0695989
0.613,-0.0611117
0.61325,-0.05168
0.6135,-0.0160636
0.61375,-0.104691
0.614,-0.114699
0.61425,-0.0984586
0.6145,-0.119505
0.61475,-0.107106
0.615,-0.103353
0.61525,-0.158247
0.6155,-0.083871
0.61575,-0.120523
0.616,-0.0477636
0.61625,-0.111911
0.6165,-0.0229191
0.61675,-0.0526894
0.617,-0.0358664
0.61725,-0.00936873
0.6175,-0.0488053
0.61775,0.00618165
0.618,0.0160435
0.61825,-0.0143065
0.6185,0.023831
0.61875,0.0450769
0.619,-0.00267971
0.61925,0.0299612
0.6195,0.0422963
0.61975,0.00575631
0.62,0.0294088
0.62025,0.0232272
0.6205,0.0136235
0.62075,0.012144
0.621,0.00677642
0.62125,0.00211025
0.6215,-0.0289257
0.62175,-0.0165118
0.622,-0.00802434
0.62225,0.0167214
0.6225,0.0222857
0.62275,0.0460166
0.623,0.00621968
0.62325,1.74E-02
0.6235,-0.0168836
0.62375,0.0297871
0.624,0.0528792
0.62425,0.0261207
0.6245,0.0615148
0.62475,0.0800583
0.625,5.76E-04
0.62525,0.0376817
0.6255,0.0527321
0.62575,0.0267944
0.626,0.0189466
0.62625,0.0143397
0.6265,0.0935221
0.62675,0.0963649
0.627,0.0868681
0.62725,0.0664587
0.6275,0.0900393
0.62775,0.0387224
0.628,0.00495289
0.62825,0.0350778
0.6285,0.0595504
0.62875,0.0226601
0.629,-0.00272064
0.62925,-0.00536207
0.6295,-0.0224768
0.62975,-0.00869907
0.63,-0.0338257
0.63025,-0.0256028
0.6305,-0.0141502
0.63075,-0.0925616
0.631,-0.0317597
0.63125,-0.0710361
0.6315,-0.0433213
0.63175,-0.0950102
0.632,-0.0308124
0.63225,-0.0901611
0.6325,-0.0778453
0.63275,-0.0432275
0.633,-0.0812072
0.63325,-0.0830355
0.6335,-0.0207289
0.63375,-0.0312107
0.634,-0.0156127
0.63425,-0.0495682
0.6345,-0.0145335
0.63475,-0.0113412
0.635,-0.017157
0.63525,-0.00241417
0.6355,-0.0352585
0.63575,-0.0507847
0.636,0.0461273
0.63625,-0.0675363
0.6365,-0.0811825
0.63675,-0.0494255
0.637,-0.0557146
0.63725,-0.0485126
0.6375,-0.0183148
0.63775,-0.0606259
0.638,-0.053015
0.63825,-0.036338
0.6385,-0.0817618
0.63875,-0.0432152
0.639,-0.0431879
0.63925,-0.0361666
0.6395,-0.0830511
0.63975,-0.0718099
0.64,-0.0358593
0.64025,-0.011426
0.6405,-0.0377068
0.64075,0.00095977
0.641,-0.0197644
0.64125,0.00698347
0.6415,0.032868
0.64175,0.0155735
0.642,0.0617506
0.64225,0.0159775
0.6425,0.0425642
0.64275,0.0192067
0.643,0.101678
0.64325,0.117423
0.6435,0.00635962
0.64375,0.126754
0.644,0.107248
0.64425,0.047073
0.6445,0.11701
0.64475,0.0565892
0.645,0.0617092
0.64525,0.0601696
0.6455,0.00855232
0.64575,0.0708632
0.646,0.0465088
0.64625,-0.00869421
0.6465,0.0122535
0.64675,-0.0554499
0.647,0.0353009
0.64725,-0.00636994
0.6475,0.00327053
0.64775,0.00470831
0.648,-0.0798861
0.64825,-0.0312407
0.6485,-0.0445792
0.64875,0.00835439
0.649,-0.0335408
0.64925,-0.0155316
0.6495,-0.0274828
0.64975,-0.0119471
0.65,-0.0107332
0.65025,-0.0110013
0.6505,-0.000571039
0.65075,0.000512031
0.651,-0.0124387
0.65125,-0.0316972
0.6515,-0.00511986
0.65175,0.0212
0.652,-0.0176609
0.65225,0.0083288
0.6525,0.0245938
0.65275,-0.0597527
0.653,-0.0418064
0.65325,-0.0697845
0.6535,-0.00903427
0.65375,-0.0867515
0.654,-0.0509145
0.65425,-0.102231
0.6545,-0.0216483
0.65475,-0.0937418
0.655,-0.116763
0.65525,-0.137646
0.6555,-0.107354
0.65575,-0.0317244
0.656,-0.0733499
0.65625,-0.0754524
0.6565,-0.108689
0.65675,-0.155219
0.657,-0.0648057
0.65725,-0.123569
0.6575,-0.0425467
0.65775,-0.0471222
0.658,-0.0399231
0.65825,-0.0376545
0.6585,-0.0236295
0.65875,-0.0170059
0.659,-0.0240869
0.65925,-0.012318
0.6595,0.0124082
0.65975,0.0252508
0.66,0.0153093
0.66025,0.0567014
0.6605,0.0398961
0.66075,0.0138619
0.661,0.0325002
0.66125,0.0413256
0.6615,0.0452889
0.66175,0.0648579
0.662,0.0526108
0.66225,0.02675
0.6625,0.0392848
0.66275,0.0635414
0.663,0.0377846
0.66325,0.0307151
0.6635,0.0353896
0.66375,-0.0299861
0.664,0.0438509
0.66425,0.0658326
0.6645,-0.0464656
0.66475,0.0643298
0.665,0.0064601
0.66525,0.0737651
0.6655,0.0271506
0.66575,0.0338807
0.666,0.0150621
0.66625,0.0279713
0.6665,0.00799139
0.66675,0.000728337
0.667,0.0185653
0.66725,0.014927
0.6675,0.0179276
0.66775,0.0161389
0.668,0.106377
0.66825,0.0491273
0.6685,0.0843923
0.66875,0.0465481
0.669,0.0236087
0.66925,0.0274704
0.6695,0.0298918
0.66975,0.00369259
0.67,0.00470407
0.67025,-0.000424371
0.6705,0.00869518
0.67075,-0.00661577
0.671,-0.0191524
0.67125,-0.0596786
0.6715,-0.0717911
0.67175,-0.0523131
0.672,-0.0553551
0.67225,-0.112303
0.6725,-0.0824956
0.67275,-0.115447
0.673,-0.145789
0.67325,-0.0663103
0.6735,-0.057614
0.67375,-0.146445
0.674,-0.0616875
0.67425,-0.0667366
0.6745,-0.0683705
0.67475,-0.0545679
0.675,-0.0650141
0.67525,-0.0713531
0.6755,-0.0755043
0.67575,-0.0775527
0.676,-0.0687795
0.67625,-0.0273734
0.6765,-0.0305636
0.67675,0.0275915
0.677,0.01468
0.67725,-0.0420122
0.6775,-0.00273177
0.67775,-0.0142717
0.678,-0.0587635
0.67825,0.010683
0.6785,-0.0127512
0.67875,-0.0104792
0.679,-0.00279632
0.67925,-0.00523312
0.6795,-0.0205076
0.67975,-0.0133905
0.68,-0.0302328
0.68025,-0.000619372
0.6805,0.00432327
0.68075,0.00462152
0.681,0.0034401
0.68125,-0.00543127
0.6815,0.0037389
0.68175,0.00938026
0.682,0.0111714
0.68225,0.0122364
0.6825,0.0337554
0.68275,0.0196777
0.683,0.00807095
0.68325,0.018175
0.6835,0.0499059
0.68375,0.0234394
0.684,0.0282073
0.68425,0.0626421
0.6845,0.0482964
0.68475,0.101894
0.685,0.0509392
0.68525,0.0946127
0.6855,0.0983182
0.68575,0.111292
0.686,0.0245946
0.68625,0.0490576
0.6865,0.0923652
0.68675,0.0170677
0.687,0.047524
0.68725,0.0682636
0.6875,0.055125
0.68775,0.0483925
0.688,-0.00398708
0.68825,0.00779325
0.6885,0.0361096
0.68875,-0.0551126
0.689,-0.0062643
0.68925,-0.0402042
0.6895,-0.0573426
0.68975,-0.0119592
0.69,-0.0569727
0.69025,-0.0235831
0.6905,-0.0377967
0.69075,-0.0422866
0.691,-0.036976
0.69125,-0.0264113
0.6915,-0.032383
0.69175,-0.026095
0.692,-0.000468431
0.69225,-0.00310905
0.6925,-0.0179937
0.69275,-0.027064
0.693,-0.0645831
0.69325,0.0195275
0.6935,-0.0282264
0.69375,-0.0458506
0.694,0.0276683
0.69425,-0.0132137
0.6945,0.0459144
0.69475,0.000616024
0.695,-0.0291013
0.69525,-0.0259969
0.6955,-0.0462504
0.69575,-0.0868924
0.696,-0.0176755
0.69625,-0.0755027
0.6965,-0.0141003
0.69675,-0.0629341
0.697,-0.00563567
0.69725,-0.0382993
0.6975,-0.108187
0.69775,-0.0365379
0.698,-0.0980756
0.69825,-0.0645872
0.6985,-0.0692378
0.69875,-0.0453778
0.699,-0.0175911
0.69925,-0.0392774
0.6995,-0.0392921
0.69975,0.00097827
0.7,0.00139535
0.70025,0.00632691
0.7005,0.0240946
0.70075,0.0468415
0.701,0.0434646
0.70125,0.0868968
0.7015,0.0787958
0.70175,0.0320643
0.702,0.0676515
0.70225,0.0665075
0.7025,0.0604872
0.70275,0.0512838
0.703,0.0126977
0.70325,0.0361905
0.7035,0.0672832
0.70375,0.0630679
0.704,0.0837683
0.70425,0.0327262
0.7045,0.0589222
0.70475,0.0197479
0.705,0.0817303
0.70525,-0.041214
0.7055,-0.0131576
0.70575,-0.0202543
0.706,-0.0142747
0.70625,0.0148085
0.7065,-0.0117136
0.70675,0.0157422
0.707,0.0188951
0.70725,0.00874711
0.7075,0.0220564
0.70775,0.0366334
0.708,0.0357377
0.70825,0.00619182
0.7085,0.00973812
0.70875,0.0475846
0.709,0.0578401
0.70925,0.0443198
0.7095,0.0359453
0.70975,0.0265287
0.71,0.0420317
0.71025,0.0102805
0.7105,0.0112972
0.71075,0.0384678
0.711,0.0297284
0.71125,0.0501527
0.7115,-0.0214061
0.71175,-0.0119232
0.712,-0.00808953
0.71225,-0.0313954
0.7125,-0.00683881
0.71275,-0.0212162
0.713,-0.0449171
0.71325,-0.0514078
0.7135,-0.0576724
0.71375,-0.0369381
0.714,-0.0982598
0.71425,-0.0597095
0.7145,-0.0879225
0.71475,-0.125853
0.715,-0.0385796
0.71525,-0.098732
0.7155,-0.037239
0.71575,-0.0576957
0.716,-0.0750968
0.71625,-0.0444635
0.7165,-0.0327136
0.71675,-0.0589159
0.717,-0.049601
0.71725,-0.0384351
0.7175,-0.039083
0.71775,-0.0399278
0.718,0.0198964
0.71825,0.00314473
0.7185,0.0598537
0.71875,0.0457269
0.719,0.0182052
0.71925,0.0262352
0.7195,0.018877
0.71975,0.0376601
0.72,0.0331798
0.72025,0.0125609
0.7205,0.025582
0.72075,0.0225017
0.721,0.0106413
0.72125,-0.00491521
0.7215,0.0102447
0.72175,0.0192872
0.722,0.0511565
0.72225,-0.0215239
0.7225,0.0290424
0.72275,-0.00723324
0.723,-0.0218504
0.72325,-0.0123236
0.7235,-0.0444987
0.72375,0.0365018
0.724,0.03234
0.72425,-0.0234542
0.7245,0.0457357
0.72475,0.0727303
0.725,0.0404276
0.72525,0.0464566
0.7255,0.0766296
0.72575,0.0514994
0.726,0.0597212
0.72625,0.132354
0.7265,0.0759995
0.72675,0.0453572
0.727,0.0453911
0.72725,0.144797
0.7275,0.0815994
0.72775,0.112635
0.728,0.0745206
0.72825,0.0533791
0.7285,0.0560398
0.72875,0.0527411
0.729,0.0136063
0.72925,0.00388749
0.7295,0.00226886
0.72975,-0.00111828
0.73,-0.00737833
0.73025,-0.0539034
0.7305,-0.0143134
0.73075,-0.0469407
0.731,-0.0376912
0.73125,-0.0300469
0.7315,-0.0503455
0.73175,-0.0555754
0.732,-0.0944196
0.73225,-0.0245278
0.7325,-0.0921494
0.73275,-0.0285404
0.733,-0.0654676
0.73325,-0.0597946
0.7335,-0.0736613
0.73375,-0.0456405
0.734,-0.0472055
0.73425,0.0189283
0.7345,-0.0155525
0.73475,-0.0657061
0.735,-0.0220869
0.73525,-0.0171378
0.7355,0.030367
0.73575,0.0131645
0.736,-0.01988
0.73625,0.0237094
0.7365,-0.00549758
0.73675,-0.0465322
0.737,-0.0457891
0.73725,-0.00235912
0.7375,-0.0225423
0.73775,-0.0374886
0.738,-0.0396763
0.73825,0.00131606
0.7385,-0.0520277
0.73875,-0.0264757
0.739,-0.0282694
0.73925,-0.0168992
0.7395,-0.0266473
0.73975,-0.029019
0.74,-0.0374408
0.74025,0.0023102
0.7405,-0.00684542
0.74075,-0.00875952
0.741,0.00255406
0.74125,0.0107867
0.7415,0.00174582
0.74175,0.0075388
0.742,0.0236464
0.74225,0.0147515
0.7425,0.105402
0.74275,0.0640153
0.743,0.0967298
0.74325,0.0565665
0.7435,0.116132
0.74375,0.105211
0.744,0.140866
0.74425,0.137777
0.7445,0.0385708
0.74475,0.101962
0.745,0.0585258
0.74525,0.112653
0.7455,0.0821463
0.74575,0.0917825
0.746,0.0791335
0.74625,0.0860212
0.7465,0.0153987
0.74675,0.0204133
0.747,-0.0182093
0.74725,-0.0159312
0.7475,0.00585251
0.74775,-0.0380068
0.748,0.0141651
0.74825,-0.0107956
0.7485,0.00648541
0.74875,-0.00143656
0.749,-0.0107148
0.74925,-0.00540221
0.7495,0.00534154
0.74975,-0.00537107
0.75,0.00199241
0.75025,0.00240949
0.7505,-0.0103456
0.75075,0.00602796
0.751,0.0200338
0.75125,0.0188043
0.7515,0.059857
0.75175,0.00511649
0.752,-0.00888716
0.75225,0.0499901
0.7525,0.0491234
0.75275,0.0060243
0.753,-0.0182178
0.75325,-0.0266958
0.7535,-0.00948908
0.75375,-0.0799148
0.754,-0.0321297
0.75425,-0.0712001
0.7545,-0.100014
0.75475,-0.101197
0.755,-0.0257123
0.75525,-0.115078
0.7555,-0.0965018
0.75575,-0.103478
0.756,-0.0774287
0.75625,-0.145716
0.7565,-0.0185014
0.75675,-0.0352631
0.757,-0.0424548
0.75725,-0.109661
0.7575,-0.0401728
0.75775,-0.0759372
0.758,-0.0140225
0.75825,-0.0277679
0.7585,-0.0386714
0.75875,-0.0130275
0.759,0.00884236
0.75925,0.0145567
0.7595,0.00353903
0.75975,0.0153643
0.76,0.0419475
0.76025,0.0248514
0.7605,0.0223154
0.76075,0.0537475
0.761,0.0277278
0.76125,0.0556199
0.7615,0.067664
0.76175,0.0457398
0.762,0.0618079
0.76225,0.0712096
0.7625,0.0481175
0.76275,0.0423915
0.763,0.0574388
0.76325,0.0371987
0.7635,-0.0182046
0.76375,0.0297326
0.764,0.0137005
0.76425,0.0112145
0.7645,0.0811906
0.76475,0.0414142
0.765,-0.0328225
0.76525,-0.0319426
0.7655,0.0704967
0.76575,0.0202111
0.766,-0.0251185
0.76625,0.0693189
0.7665,0.024973
0.76675,0.00960662
0.767,0.00816834
0.76725,0.0425593
0.7675,0.0470215
0.76775,0.0350758
0.768,0.0526839
0.76825,0.0846573
0.7685,0.0210613
0.76875,0.0408316
0.769,0.0550789
0.76925,0.0867481
0.7695,0.0333917
0.76975,0.0573082
0.77,0.0224417
0.77025,0.00503036
0.7705,0.00310324
0.77075,-0.00916981
0.771,-0.0268541
0.77125,-0.0570674
0.7715,-0.0545739
0.77175,-0.0598151
0.772,-0.0664014
0.77225,-0.0840216
0.7725,-0.0693755
0.77275,-0.0744588
0.773,-0.0898401
0.77325,-0.155033
0.7735,-0.111333
0.77375,-0.125441
0.774,-0.0627268
0.77425,-0.0949508
0.7745,-0.0758455
0.77475,-0.0465937
0.775,-0.0320987
0.77525,-0.0593254
0.7755,0.00425668
0.77575,0.00551342
0.776,-0.017889
0.77625,-0.00665696
0.7765,-0.0486104
0.77675,-0.0381287
0.777,0.0045068
0.77725,-0.0535012
0.7775,-0.0100941
0.77775,-0.0117622
0.778,-0.0142925
0.77825,0.0271527
0.7785,0.012264
0.77875,-0.00114209
0.779,-0.0116269
0.77925,-0.00622779
0.7795,-0.0130126
0.77975,-0.0274087
0.78,-0.0285019
0.78025,-0.039014
0.7805,-0.0283588
0.78075,-0.068228
0.781,-0.0193471
0.78125,-0.00955201
0.7815,-0.0129492
0.78175,0.0233045
0.782,-0.0243946
0.78225,0.0135519
0.7825,0.0262066
0.78275,0.0552743
0.783,0.00775386
0.78325,0.067106
0.7835,0.0116208
0.78375,0.0262972
0.784,0.0514542
0.78425,0.128226
0.7845,0.0381633
0.78475,0.119037
0.785,0.0287366
0.78525,0.0479315
0.7855,0.0573339
0.78575,2.21E-02
0.786,0.0613986
0.78625,0.110128
0.7865,0.045105
0.78675,0.050529
0.787,0.0398651
0.78725,0.0281206
0.7875,0.0564366
0.78775,0.0501328
0.788,0.0431496
0.78825,0.0194952
0.7885,-0.032065
0.78875,0.00489903
0.789,-0.0320846
0.78925,-0.00113086
0.7895,-0.0446433
0.78975,-0.0337083
0.79,-0.0186629
0.79025,-0.0192789
0.7905,-0.0351504
0.79075,-0.0248481
0.791,-0.0436713
0.79125,-1.60E-02
0.7915,-0.018823
0.79175,-0.0483957
0.792,-0.0024481
0.79225,-0.0221271
0.7925,0.00504378
0.79275,0.0347178
0.793,3.09E-03
0.79325,-0.0118031
0.7935,-0.0271007
0.79375,-3.90E-02
0.794,0.00466099
0.79425,0.000616575
0.7945,-0.0368665
0.79475,-0.00536024
0.795,0.000354032
0.79525,-0.0414982
0.7955,-0.0104056
0.79575,-0.0709454
0.796,-0.0557326
0.79625,-0.0761609
0.7965,-0.0436812
0.79675,-0.0842409
0.797,-0.050118
0.79725,-0.0612071
0.7975,-0.0162689
0.79775,-0.0618657
0.798,-0.0397731
0.79825,-0.0650434
0.7985,-0.0848917
0.79875,-0.0607435
0.799,-0.076237
0.79925,-0.033583
0.7995,-0.0223868
0.79975,-0.00368732
0.8,-0.000685857
0.80025,0.0131489
0.8005,0.022477
0.80075,0.032342
0.801,0.0610367
0.80125,0.0293416
0.8015,0.0330799
0.80175,0.0747254
0.802,0.00957416
0.80225,0.100735
0.8025,0.125316
0.80275,0.0855599
0.803,0.0439297
0.80325,0.0231745
0.8035,0.101464
0.80375,0.073222
0.804,0.0192924
0.80425,0.0552939
0.8045,0.072912
0.80475,0.0676827
0.805,0.0619152
0.80525,0.0441358
0.8055,-0.013068
0.80575,0.014583
0.806,0.0118543
0.80625,4.80E-02
0.8065,0.0331917
0.80675,0.0026573
0.807,0.0303252
0.80725,0.00162535
0.8075,-0.000479843
0.80775,0.0256309
0.808,-0.000259303
0.80825,0.00148269
0.8085,0.0159723
0.80875,0.0380553
0.809,0.0263566
0.80925,0.0151891
0.8095,0.0428527
0.80975,0.0322985
0.81,0.0155696
0.81025,0.0548949
0.8105,0.0524675
0.81075,0.0438201
0.811,0.0137012
0.81125,-6.34E-03
0.8115,0.028051
0.81175,0.01793
0.812,-0.0100787
0.81225,-0.0323441
0.8125,-7.07E-02
0.81275,-0.0679738
0.813,-0.0829241
0.81325,-0.060913
0.8135,-0.106105
0.81375,-0.0448206
0.814,-0.0344164
0.81425,-0.0518572
0.8145,-0.123806
0.81475,-0.103245
0.815,-0.051579
0.81525,-0.0585141
0.8155,-0.106101
0.81575,-0.108061
0.816,-0.0720851
0.81625,-0.0603506
0.8165,-0.0304441
0.81675,-0.0602733
0.817,-0.0519649
0.81725,-0.042944
0.8175,-0.0521624
0.81775,0.00932695
0.818,-0.00220137
0.81825,0.0195753
0.8185,0.0198797
0.81875,0.00901333
0.819,-0.0179361
0.81925,0.0277474
0.8195,0.0282524
0.81975,0.0221556
0.82,0.037845
0.82025,0.0219521
0.8205,0.0171678
0.82075,0.0125887
0.821,-0.00279309
0.82125,-0.000982893
0.8215,0.0079402
0.82175,-0.0365496
0.822,-0.0325551
0.82225,0.0152619
0.8225,0.0313971
0.82275,-0.00278475
0.823,0.000298289
0.82325,0.0177147
0.8235,0.071335
0.82375,-0.00738027
0.824,-0.00608238
0.82425,0.00564739
0.8245,0.0424761
0.82475,0.0531154
0.825,0.0642816
0.82525,0.0875853
0.8255,0.0713893
0.82575,0.0951886
0.826,0.125195
0.82625,0.085142
0.8265,0.0993224
0.82675,0.0206994
0.827,0.108082
0.82725,0.0240388
0.8275,0.098711
0.82775,0.0612542
0.828,0.0587587
0.82825,0.0390598
0.8285,0.0312473
0.82875,0.0282134
0.829,0.0318293
0.82925,0.0200321
0.8295,-0.0145629
0.82975,0.000898511
0.83,-0.0117714
0.83025,-0.0590321
0.8305,-0.030673
0.83075,-0.067488
0.831,-0.00453827
0.83125,-0.0220001
0.8315,-0.0322594
0.83175,-0.080942
0.832,-0.0922164
0.83225,-0.080357
0.8325,-0.0773631
0.83275,-0.0814118
0.833,-0.0156497
0.83325,-0.0657593
0.8335,-0.0470163
0.83375,-0.0491837
0.834,-0.0450576
0.83425,-0.0717604
0.8345,-0.0465125
0.83475,-0.0256576
0.835,0.00718684
0.83525,-0.0254173
0.8355,-0.0415905
0.83575,-0.0446141
0.836,-0.0270672
0.83625,0.000422651
0.8365,-0.0153549
0.83675,0.0107641
0.837,-0.0492249
0.83725,-0.0669867
0.8375,-0.00574084
0.83775,-0.0152503
0.838,-0.0298408
0.83825,-0.0484984
0.8385,-0.0462651
0.83875,-0.069601
0.839,-0.0413146
0.83925,-0.031059
0.8395,-0.0677457
0.83975,-0.0339512
0.84,-0.0102215
0.84025,-0.0104582
0.8405,-0.00421648
0.84075,-0.014424
0.841,-0.0256066
0.84125,-0.00443707
0.8415,0.0120895
0.84175,0.00500955
0.842,0.0565027
0.84225,0.0361966
0.8425,0.0451908
0.84275,0.0813162
0.843,0.0995632
0.84325,0.0851054
0.8435,0.0752894
0.84375,0.045024
0.844,0.0173754
0.84425,0.119552
0.8445,0.0738995
0.84475,0.00977562
0.845,0.101598
0.84525,0.101638
0.8455,0.0913238
0.84575,0.0263615
0.846,0.0480814
0.84625,-0.00588893
0.8465,0.0295647
0.84675,-0.00254876
0.847,0.0716647
0.84725,0.0215191
0.8475,-0.00348453
0.84775,0.0317153
0.848,0.0118928
0.84825,-0.00930063
0.8485,0.0090883
0.84875,0.0264198
0.849,0.0124864
0.84925,0.00281342
0.8495,-0.00440123
0.84975,-0.0056139
0.85,-0.000116467
0.85025,0.00254316
0.8505,0.0189337
0.85075,0.0307617
0.851,0.0361918
0.85125,0.00564755
0.8515,0.0071934
0.85175,-0.0116249
0.852,-0.0365974
0.85225,0.0305738
0.8525,0.0539141
0.85275,-0.0400013
0.853,-0.0504622
0.85325,-0.0194084
0.8535,0.015724
0.85375,-0.0243099
0.854,-0.0915117
0.85425,-0.00192754
0.8545,-0.0733523
0.85475,-0.0614364
0.855,-0.0515765
0.85525,-0.0934142
0.8555,-0.0957106
0.85575,-0.082253
0.856,-0.116916
0.85625,-0.105276
0.8565,-0.0814927
0.85675,-1.14E-01
0.857,-0.0713538
0.85725,-0.0914266
0.8575,-0.0653371
0.85775,-0.0708257
0.858,-0.0286093
0.85825,-0.0500405
0.8585,-0.00654692
0.85875,0.0143177
0.859,0.0237852
0.85925,0.00232355
0.8595,0.00567859
0.85975,0.0633268
0.86,0.00650895
0.86025,0.0103525
0.8605,0.0621297
0.86075,0.0511427
0.861,0.0149635
0.86125,0.0661569
0.8615,0.0115477
0.86175,0.0129228
0.862,0.0566617
0.86225,0.0536767
0.8625,0.035756
0.86275,0.0560121
0.863,0.0402675
0.86325,0.0715319
0.8635,-0.0331587
0.86375,-0.0506058
0.864,-0.0318664
0.86425,0.0431886
0.8645,0.0251935
0.86475,0.0153707
0.865,0.00991706
0.86525,-0.0258897
0.8655,0.0175942
0.86575,-0.0199094
0.866,-0.00814898
0.86625,0.0414012
0.8665,0.00802733
0.86675,0.0700414
0.867,0.0666678
0.86725,0.0634746
0.8675,0.0463009
0.86775,0.0514873
0.868,0.0568059
0.86825,0.10571
0.8685,0.0405245
0.86875,0.067874
0.869,0.0743051
0.86925,0.0400327
0.8695,0.0120277
0.86975,0.0185906
0.87,0.0284544
0.87025,0.0253962
0.8705,0.0171903
0.87075,-0.0126197
0.871,-0.0339542
0.87125,-0.045429
0.8715,-0.0116342
0.87175,-0.0381091
0.872,-7.86E-02
0.87225,-0.048286
0.8725,-0.0601689
0.87275,-0.0892258
0.873,-0.0956347
0.87325,-0.034388
0.8735,-0.0264992
0.87375,-0.112499
0.874,-0.0333213
0.87425,-0.0834909
0.8745,-0.0598526
0.87475,-0.0889126
0.875,-0.0230987
0.87525,-0.0268543
0.8755,-0.0488202
0.87575,0.00321561
0.876,-0.0545613
0.87625,0.0266063
0.8765,0.0539129
0.87675,0.051316
0.877,-0.0406383
0.87725,-0.0404996
0.8775,-0.0385476
0.87775,-0.00275291
0.878,0.0145358
0.87825,0.00981019
0.8785,0.00189082
0.87875,-0.0111595
0.879,0.00334235
0.87925,-0.00952203
0.8795,-0.0199442
0.87975,-0.0106345
0.88,-0.041237
0.88025,-0.0366295
0.8805,-0.00368721
0.88075,-0.0445453
0.881,-0.00879808
0.88125,0.00630765
0.8815,-0.048991
0.88175,-0.00141827
0.882,-0.0401895
0.88225,0.00121585
0.8825,0.0280341
0.88275,0.0615824
0.883,0.0526443
0.88325,0.0670367
0.8835,0.0405966
0.88375,0.0612993
0.884,0.0250129
0.88425,0.121148
0.8845,0.041463
0.88475,0.0407895
0.885,0.132292
0.88525,0.127465
0.8855,0.114372
0.88575,0.0689761
0.886,0.0434758
0.88625,0.0888505
0.8865,0.0863881
0.88675,0.0417909
0.887,0.0799484
0.88725,0.0494281
0.8875,0.0521043
0.88775,0.0207131
0.888,0.0292846
0.88825,0.00947059
0.8885,0.00553714
0.88875,0.0265851
0.889,-0.0211404
0.88925,0.00787389
0.8895,-0.00917986
0.88975,-0.00158391
0.89,-0.00624797
0.89025,-0.00853827
0.8905,-0.0209644
0.89075,-0.0358191
0.891,-0.0066414
0.89125,-0.0404598
0.8915,-0.0499795
0.89175,-0.0263227
0.892,-0.0312191
0.89225,0.0177103
0.8925,-0.0466751
0.89275,-0.00218581
0.893,0.0325532
0.89325,-0.032842
0.8935,0.0077676
0.89375,-0.0199874
0.894,-0.00475515
0.89425,-0.0283367
0.8945,-0.0871041
0.89475,0.0394323
0.895,-0.0137781
0.89525,0.0016107
0.8955,0.0120381
0.89575,-0.0281083
0.896,-0.0606465
0.89625,-0.0948219
0.8965,-0.0534312
0.89675,-0.0723362
0.897,-0.036607
0.89725,-0.0939174
0.8975,-0.0975023
0.89775,-0.0952169
0.898,-0.0814387
0.89825,-0.0866208
0.8985,-0.0412359
0.89875,-0.0344613
0.899,-0.0174753
0.89925,-0.0178199
0.8995,-0.00772352
0.89975,-0.0107921
0.9,9.36E-05
0.90025,0.0108775
0.9005,0.0299259
0.90075,0.0617128
0.901,0.0409204
0.90125,0.0587468
0.9015,0.0651591
0.90175,0.0515621
0.902,0.0712315
0.90225,0.0387202
0.9025,0.117022
0.90275,0.0727361
0.903,0.092599
0.90325,0.0165536
0.9035,0.0537575
0.90375,0.0637161
0.904,0.0576176
0.90425,0.0443461
0.9045,0.00488805
0.90475,0.0305476
0.905,0.0998647
0.90525,0.0576477
0.9055,0.0266715
0.90575,-0.00588082
0.906,-0.00107975
0.90625,0.0461042
0.9065,0.0242528
0.90675,0.0161032
0.907,0.00706071
0.90725,0.0512345
0.9075,-0.0153212
0.90775,0.0301613
0.908,0.0177934
0.90825,0.00610804
0.9085,0.0359085
0.90875,0.0148526
0.909,0.0314506
0.90925,0.0569213
0.9095,0.0653739
0.90975,0.0449809
0.91,0.0264081
0.91025,-0.00383309
0.9105,0.0626728
0.91075,0.0512106
0.911,0.0330045
0.91125,-0.00244767
0.9115,0.0341619
0.91175,-0.0216878
0.912,-0.0303452
0.91225,-0.0187407
0.9125,-0.0686982
0.91275,-0.0525054
0.913,-0.0563126
0.91325,-0.0227867
0.9135,-0.0298305
0.91375,-0.0318842
0.914,-0.0333951
0.91425,-0.053682
0.9145,-0.0745613
0.91475,-0.0839811
0.915,-0.0646579
0.91525,-0.10567
0.9155,-0.0575751
0.91575,-0.046976
0.916,-0.115557
0.91625,-0.0240795
0.9165,-0.0783788
0.91675,-0.0727213
0.917,-3.44E-02
0.91725,-0.0470679
0.9175,0.00737149
0.91775,0.0203264
0.918,0.0265525
0.91825,0.0470296
0.9185,0.0459203
0.91875,0.0621354
0.919,0.0258501
0.91925,0.0339512
0.9195,0.0276456
0.91975,0.0145192
0.92,0.03355
0.92025,0.00771656
0.9205,0.0103663
0.92075,0.0211805
0.921,0.0155221
0.92125,0.0084381
0.9215,0.0335311
0.92175,0.0299463
0.922,-0.001288
0.92225,0.0187698
0.9225,0.0282588
0.92275,0.0288823
0.923,-0.0359875
0.92325,7.21E-05
0.9235,-0.00614268
0.92375,0.0488531
0.924,-0.0199018
0.92425,-0.0227186
0.9245,0.0652715
0.92475,0.0773622
0.925,0.0239461
0.92525,0.0393707
0.9255,0.0409891
0.92575,0.0308929
0.926,0.0353413
0.92625,0.0933611
0.9265,0.030023
0.92675,0.149446
0.927,0.0444613
0.92725,0.0633068
0.9275,0.0415533
0.92775,0.042322
0.928,0.0554592
0.92825,0.0518617
0.9285,0.0314074
0.92875,0.0295916
0.929,0.0266207
0.92925,0.00108762
0.9295,-0.00176018
0.92975,-0.0205376
0.93,-8.04E-03
0.93025,-0.0559586
0.9305,-0.0658626
0.93075,-0.0653639
0.931,-0.083774
0.93125,-0.0749581
0.9315,-0.0370387
0.93175,-0.0514397
0.932,-0.0221154
0.93225,-0.0169984
0.9325,-0.0166962
0.93275,-0.0244414
0.933,-0.0505935
0.93325,-0.0194383
0.9335,-0.0146738
0.93375,-0.0125417
0.934,-0.0498693
0.93425,-0.0197336
0.9345,-0.00617014
0.93475,0.00651032
0.935,0.0343143
0.93525,-0.0146669
0.9355,0.0489527
0.93575,-0.0513199
0.936,-0.00876005
0.93625,-0.0559972
0.9365,-0.0286993
0.93675,0.0273889
0.937,-0.0365347
0.93725,-0.0603645
0.9375,-0.0581401
0.93775,-0.0575843
0.938,-0.0225744
0.93825,-0.0378993
0.9385,-0.0686337
0.93875,-0.0787174
0.939,-0.0213846
0.93925,-0.0741127
0.9395,-0.0226998
0.93975,-0.0251347
0.94,-0.00715619
0.94025,-0.0595572
0.9405,0.00883395
0.94075,0.0019167
0.941,-0.0284959
0.94125,0.0041393
0.9415,0.0319877
0.94175,0.0351016
0.942,0.0234345
0.94225,0.0536692
0.9425,0.069887
0.94275,0.0517922
0.943,0.0763357
0.94325,0.129034
0.9435,0.0123796
0.94375,0.025589
0.944,0.0640712
0.94425,0.0789968
0.9445,0.0611719
0.94475,0.131395
0.945,0.0180586
0.94525,0.102888
0.9455,0.0141554
0.94575,0.0352181
0.946,0.00733771
0.94625,0.0661354
0.9465,0.0627372
0.94675,0.0206825
0.947,0.0247139
0.94725,-0.00454543
0.9475,0.00894362
0.94775,-0.0115584
0.948,-0.00876586
0.94825,-0.00958383
0.9485,0.0253562
0.94875,-0.0161891
0.949,-0.0139883
0.94925,-0.00179465
0.9495,-0.0131351
0.94975,-0.00350818
0.95,-1.33E-05
0.95025,0.00589635
0.9505,0.0112477
0.95075,0.00667995
0.951,0.0172582
0.95125,-0.00368274
0.9515,0.0234829
0.95175,0.00601251
0.952,0.0266944
0.95225,0.0649069
0.9525,-0.033814
0.95275,-0.0567004
0.953,-0.0133599
0.95325,-3.11E-02
0.9535,-0.0775394
0.95375,0.000695196
0.954,-0.0827737
0.95425,-0.093983
0.9545,-0.0855646
0.95475,-0.0231489
0.955,-0.0691091
0.95525,-0.0711773
0.9555,-0.108768
0.95575,-0.125433
0.956,-0.0900872
0.95625,-0.0956015
0.9565,-0.0758658
0.95675,-0.0338874
0.957,-0.0812974
0.95725,-0.10367
0.9575,-0.0881519
0.95775,-0.00760135
0.958,-0.0545889
0.95825,-0.0506692
0.9585,-0.0125507
0.95875,0.0172835
0.959,0.0129817
0.95925,-0.00765913
0.9595,-0.00133234
0.95975,8.83E-05
0.96,0.066295
0.96025,0.0647442
0.9605,0.0541882
0.96075,0.0879928
0.961,0.0525512
0.96125,0.0398884
0.9615,0.0733617
0.96175,0.0615025
0.962,0.0443536
0.96225,0.0436824
0.9625,0.0207133
0.96275,-0.00309898
0.963,0.0285554
0.96325,0.00958045
0.9635,0.0429787
0.96375,0.0219587
0.964,0.0302252
0.96425,-0.00794146
0.9645,-0.0152587
0.96475,0.0214176
0.965,-0.0548764
0.96525,-0.00254856
0.9655,-5.93E-03
0.96575,-0.0125175
0.966,0.0132462
0.96625,-0.00502217
0.9665,0.0383461
0.96675,0.0879875
0.967,0.0194876
0.96725,0.0584641
0.9675,0.062183
0.96775,0.0532792
0.968,0.107053
0.96825,0.0819053
0.9685,0.0547083
0.96875,0.0539408
0.969,0.0732343
0.96925,0.0497111
0.9695,0.0261667
0.96975,0.0347691
0.97,0.0165408
0.97025,0.00552389
0.9705,-0.00590446
0.97075,0.00358992
0.971,-0.00208371
0.97125,-0.0370227
0.9715,-0.0242497
0.97175,-0.0533417
0.972,-0.0450787
0.97225,-0.0732286
0.9725,-0.0701884
0.97275,-0.0256491
0.973,-0.0648599
0.97325,-0.0370586
0.9735,-0.0624646
0.97375,-0.0974943
0.974,-0.0530706
0.97425,-0.0176498
0.9745,-0.0488403
0.97475,-0.0751167
0.975,-0.0481228
0.97525,-0.000609106
0.9755,-0.0441523
0.97575,0.00854909
0.976,-0.0316987
0.97625,0.0505198
0.9765,-0.000764122
0.97675,-0.0489362
0.977,0.00139501
0.97725,-0.0265192
0.9775,0.0259102
0.97775,0.0238067
0.978,0.0344509
0.97825,0.0146835
0.9785,0.0347742
0.97875,-0.012117
0.979,0.00148227
0.97925,-0.0156975
0.9795,-0.0101342
0.97975,-0.00157436
0.98,-0.0273015
0.98025,-0.0227425
0.9805,-0.0252443
0.98075,0.00397627
0.981,-0.0151394
0.98125,-0.0420055
0.9815,0.0257278
0.98175,0.0309429
0.982,0.00663124
0.98225,0.000198881
0.9825,0.0670805
0.98275,0.0718137
0.983,0.0159311
0.98325,0.0831356
0.9835,0.0299948
0.98375,0.0919982
0.984,0.0939485
0.98425,0.0853872
0.9845,0.0210038
0.98475,0.103947
0.985,0.109786
0.98525,0.12817
0.9855,0.125387
0.98575,0.150802
0.986,0.100932
0.98625,0.119359
0.9865,0.0316879
0.98675,0.0802558
0.987,0.097754
0.98725,0.0703614
0.9875,0.0564923
0.98775,0.0615065
0.988,-0.00264788
0.98825,0.0493698
0.9885,0.0187151
0.98875,-0.0130073
0.989,0.0176305
0.98925,0.011464
0.9895,0.0160933
0.98975,0.00840634
0.99,-0.0206855
0.99025,-0.0419337
0.9905,-0.00192066
0.99075,-0.00693991
0.991,-0.0122264
0.99125,-0.024469
0.9915,0.0035829
0.99175,-0.00133184
0.992,0.00733988
0.99225,-0.0141022
0.9925,-0.0248212
0.99275,0.0465626
0.993,0.0445221
0.99325,5.08E-02
0.9935,0.0400014
0.99375,0.0612011
0.994,0.00851004
0.99425,0.0452144
0.9945,0.0387564
0.99475,-0.00336738
0.995,-0.0109104
0.99525,-8.54E-03
0.9955,-0.0436728
0.99575,0.0193193
0.996,-0.0270264
0.99625,-0.037593
0.9965,-0.0154605
0.99675,-0.0986948
0.997,0.00159299
0.99725,-0.100479
0.9975,-0.0104422
0.99775,-0.0814669
0.998,-0.0132711
0.99825,-0.017688
0.9985,-0.0325704
0.99875,-0.0319469
0.999,-0.0154288
0.99925,0.00592097
0.9995,-8.06E-06
0.99975,0.0182972
1,0.0266701
1.00025,0.0408195
1.0005,0.0404823
1.00075,0.0591233
1.001,0.0728393
1.00125,0.0876429
1.0015,0.0354645
1.00175,0.0556596
1.002,0.083407
1.00225,0.105469
1.0025,0.0695964
1.00275,0.115763
1.003,0.110273
1.00325,0.126919
1.0035,1.25E-01
1.00375,0.0855593
1.004,0.0838063
1.00425,0.0402174
1.0045,0.0361794
1.00475,0.0522918
1.005,0.0926373
1.00525,0.0977777
1.0055,0.0945502
1.00575,0.0444839
1.006,0.0764518
1.00625,0.0718907
1.0065,0.0281931
1.00675,0.0102276
1.007,0.00477568
1.00725,0.0767603
1.0075,0.0991023
1.00775,0.0541179
1.008,0.088713
1.00825,0.0524647
1.0085,0.0719183
1.00875,0.0737643
1.009,0.0837913
1.00925,0.0864876
1.0095,0.0906361
1.00975,0.111026
1.01,0.0731696
1.01025,0.0923846
1.0105,0.0843357
1.01075,0.0862774
1.011,0.0664166
1.01125,0.0371772
1.0115,0.02571
1.01175,0.0433938
1.012,0.00496422
1.01225,-0.00479155
1.0125,0.0178958
1.01275,-0.013931
1.013,-0.0265947
1.01325,-0.00541091
1.0135,-0.0394562
1.01375,-0.0141433
1.014,-0.0638376
1.01425,-0.05815
1.0145,-0.0357174
1.01475,-0.0918583
1.015,-0.0305366
1.01525,0.0145986
1.0155,-0.00919113
1.01575,-0.0300933
1.016,0.0433722
1.01625,0.0203058
1.0165,0.037443
1.01675,-0.0255865
1.017,-0.0202105
1.01725,-0.00655946
1.0175,0.0173106
1.01775,0.0293753
1.018,0.0995993
1.01825,0.0836183
1.0185,0.133879
1.01875,0.114491
1.019,0.0924644
1.01925,0.100934
1.0195,0.0795066
1.01975,0.0626249
1.02,0.0746472
1.02025,0.0858439
1.0205,0.100144
1.02075,0.088684
1.021,0.0684657
1.02125,0.0916611
1.0215,0.0851905
1.02175,0.0672931
1.022,0.0561477
1.02225,0.130425
1.0225,0.131338
1.02275,0.0399185
1.023,0.125984
1.02325,0.0966007
1.0235,0.0894869
1.02375,0.0776234
1.024,0.137507
1.02425,0.142896
1.0245,0.0845241
1.02475,0.0883321
1.025,0.176239
1.02525,0.161234
1.0255,0.184304
1.02575,0.174818
1.026,0.186913
1.02625,0.141562
1.0265,0.177166
1.02675,0.157927
1.027,0.141652
1.02725,0.173324
1.0275,0.14855
1.02775,0.150833
1.028,0.126831
1.02825,0.147675
1.0285,0.0957937
1.02875,0.123679
1.029,0.105972
1.02925,0.104051
1.0295,0.0930523
1.02975,0.0966832
1.03,0.0758456
1.03025,0.0939399
1.0305,0.077338
1.03075,0.0641438
1.031,0.0866772
1.03125,0.0294506
1.0315,0.0143971
1.03175,-0.000326095
1.032,0.0409016
1.03225,0.075215
1.0325,0.0733721
1.03275,0.0505264
1.033,0.0548924
1.03325,0.101451
1.0335,0.112086
1.03375,0.0548187
1.034,0.0982939
1.03425,0.111213
1.0345,0.0785484
1.03475,0.149962
1.035,0.0664773
1.03525,0.11307
1.0355,0.162485
1.03575,0.145816
1.036,0.0558769
1.03625,0.0916159
1.0365,0.147407
1.03675,0.0718916
1.037,0.0700304
1.03725,0.129016
1.0375,0.0823075
1.03775,0.0995515
1.038,0.0800776
1.03825,0.11546
1.0385,0.0756408
1.03875,0.0517242
1.039,0.102722
1.03925,0.0852242
1.0395,0.0972892
1.03975,0.082312
1.04,0.103897
1.04025,0.108687
1.0405,0.0953211
1.04075,0.147369
1.041,0.147073
1.04125,0.151282
1.0415,0.178498
1.04175,0.182363
1.042,0.165768
1.04225,0.205936
1.0425,0.190709
1.04275,0.201374
1.043,0.260694
1.04325,0.196809
1.0435,0.218323
1.04375,0.185504
1.044,0.300447
1.04425,0.231284
1.0445,0.241377
1.04475,0.257174
1.045,0.273761
1.04525,0.231797
1.0455,0.236766
1.04575,0.240832
1.046,0.169859
1.04625,0.212114
1.0465,0.239442
1.04675,0.150048
1.047,0.234745
1.04725,0.219476
1.0475,0.16426
1.04775,0.203886
1.048,0.188348
1.04825,0.186881
1.0485,0.167169
1.04875,0.160979
1.049,0.174715
1.04925,0.157164
1.0495,0.177308
1.04975,0.184777
1.05,0.188177
1.05025,0.188079
1.0505,0.189879
1.05075,0.212075
1.051,0.240396
1.05125,0.250046
1.0515,0.220999
1.05175,0.191258
1.052,0.209472
1.05225,0.213474
1.0525,0.187305
1.05275,0.190844
1.053,0.199932
1.05325,0.173186
1.0535,0.190003
1.05375,0.176885
1.054,0.130084
1.05425,0.196167
1.0545,0.118239
1.05475,0.180385
1.055,0.154926
1.05525,0.179953
1.0555,0.116333
1.05575,0.196189
1.056,0.173253
1.05625,0.136852
1.0565,0.131806
1.05675,0.139773
1.057,0.168028
1.05725,0.148098
1.0575,0.189391
1.05775,0.152675
1.058,0.197111
1.05825,0.196485
1.0585,0.212592
1.05875,0.231151
1.059,0.243719
1.05925,0.249217
1.0595,0.278511
1.05975,0.301699
1.06,0.254677
1.06025,0.27967
1.0605,0.326849
1.06075,0.324036
1.061,0.279669
1.06125,0.317095
1.0615,0.301545
1.06175,0.304442
1.062,0.275549
1.06225,0.284351
1.0625,0.265578
1.06275,0.309961
1.063,0.269559
1.06325,0.250379
1.0635,0.298136
1.06375,0.338955
1.064,0.272516
1.06425,0.257923
1.0645,0.321205
1.06475,0.217152
1.065,0.276501
1.06525,0.258381
1.0655,0.314034
1.06575,0.332597
1.066,0.326547
1.06625,0.342651
1.0665,0.364981
1.06675,0.36543
1.067,0.374752
1.06725,0.3144
1.0675,0.381461
1.06775,0.350724
1.068,0.352263
1.06825,0.350295
1.0685,0.348299
1.06875,0.356572
1.069,0.36334
1.06925,0.357528
1.0695,0.3621
1.06975,0.333688
1.07,0.340906
1.07025,0.328866
1.0705,0.328842
1.07075,0.309558
1.071,0.305306
1.07125,0.296601
1.0715,0.276185
1.07175,0.290998
1.072,0.259369
1.07225,0.234805
1.0725,0.315673
1.07275,0.257001
1.073,0.248835
1.07325,0.284687
1.0735,0.269781
1.07375,0.207138
1.074,0.268024
1.07425,0.247937
1.0745,0.272306
1.07475,0.334086
1.075,0.295614
1.07525,0.288163
1.0755,0.311964
1.07575,0.343964
1.076,0.359427
1.07625,0.321947
1.0765,0.389376
1.07675,0.374393
1.077,0.387612
1.07725,0.322229
1.0775,0.314867
1.07775,0.351434
1.078,0.376415
1.07825,0.392013
1.0785,0.397072
1.07875,0.372046
1.079,0.354553
1.07925,0.352789
1.0795,0.368148
1.07975,0.348024
1.08,0.378065
1.08025,0.33137
1.0805,0.349529
1.08075,0.377674
1.081,0.393919
1.08125,0.318032
1.0815,0.368434
1.08175,0.408471
1.082,0.370185
1.08225,0.454376
1.0825,0.458533
1.08275,0.446969
1.083,0.420745
1.08325,0.455236
1.0835,0.422305
1.08375,0.471157
1.084,0.481749
1.08425,0.426626
1.0845,0.466482
1.08475,0.522503
1.085,0.522093
1.08525,0.545126
1.0855,0.532076
1.08575,0.510249
1.086,0.475356
1.08625,0.519164
1.0865,0.518685
1.08675,0.49716
1.087,0.442212
1.08725,0.454733
1.0875,0.492863
1.08775,0.45865
1.088,0.455906
1.08825,0.458712
1.0885,0.470046
1.08875,0.470359
1.089,0.452554
1.08925,0.437636
1.0895,0.432687
1.08975,0.423323
1.09,0.415549
1.09025,0.416834
1.0905,0.423469
1.09075,0.438191
1.091,0.436308
1.09125,0.426466
1.0915,0.450815
1.09175,0.438258
1.092,0.443078
1.09225,0.442466
1.0925,0.464587
1.09275,0.436306
1.093,0.45872
1.09325,0.442493
1.0935,0.449772
1.09375,0.487968
1.094,0.458276
1.09425,0.473313
1.0945,0.447611
1.09475,0.440008
1.095,0.417308
1.09525,0.484935
1.0955,0.443326
1.09575,0.461765
1.096,0.404617
1.09625,0.399932
1.0965,0.446441
1.09675,0.41521
1.097,0.484405
1.09725,0.42345
1.0975,0.448962
1.09775,0.442847
1.098,0.48766
1.09825,0.439077
1.0985,0.432926
1.09875,0.479038
1.099,0.491699
1.09925,0.516613
1.0995,0.504829
1.09975,0.518586
1.1,0.527201
1.10025,0.546582
1.1005,0.556743
1.10075,0.553385
1.101,0.566247
1.10125,0.588528
1.1015,0.588233
1.10175,0.571723
1.102,0.57447
1.10225,0.566781
1.1025,0.677135
1.10275,0.610084
1.103,0.651824
1.10325,0.580961
1.1035,0.600962
1.10375,0.600508
1.104,0.566894
1.10425,0.6238
1.1045,0.611461
1.10475,0.603163
1.105,0.58369
1.10525,0.529306
1.1055,0.591143
1.10575,0.600141
1.106,0.576236
1.10625,0.541106
1.1065,0.580259
1.10675,0.622215
1.107,0.557235
1.10725,0.546332
1.1075,0.586634
1.10775,0.626643
1.108,0.592607
1.10825,0.613425
1.1085,0.622011
1.10875,0.620195
1.109,0.601302
1.10925,0.636076
1.1095,0.607369
1.10975,0.615183
1.11,0.614737
1.11025,0.617821
1.1105,0.608562
1.11075,0.626495
1.111,0.595733
1.11125,0.625488
1.1115,0.607766
1.11175,0.631166
1.112,0.602795
1.11225,0.592847
1.1125,0.569415
1.11275,0.530169
1.113,0.522993
1.11325,0.562742
1.1135,0.531853
1.11375,0.599965
1.114,0.52025
1.11425,0.534483
1.1145,0.562858
1.11475,0.528278
1.115,0.55131
1.11525,0.482844
1.1155,0.528027
1.11575,0.519697
1.116,0.580387
1.11625,0.56091
1.1165,0.569532
1.11675,0.611488
1.117,0.609986
1.11725,0.606497
1.1175,0.66231
1.11775,0.595214
1.118,0.639868
1.11825,0.626355
1.1185,0.681435
1.11875,0.619835
1.119,0.682715
1.11925,0.645062
1.1195,0.674463
1.11975,0.678591
1.12,0.665274
1.12025,0.658892
1.1205,0.665449
1.12075,0.673681
1.121,0.652185
1.12125,0.655924
1.1215,0.662547
1.12175,0.651177
1.122,0.647102
1.12225,0.672552
1.1225,0.690784
1.12275,0.620018
1.123,0.674954
1.12325,0.687749
1.1235,0.690998
1.12375,0.653212
1.124,0.671868
1.12425,0.670617
1.1245,0.699008
1.12475,0.714216
1.125,0.735084
1.12525,0.70569
1.1255,0.722336
1.12575,0.751916
1.126,0.742659
1.12625,0.719817
1.1265,0.737101
1.12675,0.745314
1.127,0.731099
1.12725,0.780569
1.1275,0.744143
1.12775,0.768934
1.128,0.741075
1.12825,0.734631
1.1285,0.724951
1.12875,0.731224
1.129,0.70818
1.12925,0.687277
1.1295,0.67838
1.12975,0.676965
1.13,0.656439
1.13025,0.664477
1.1305,0.669952
1.13075,0.61098
1.131,0.62999
1.13125,5.93E-01
1.1315,0.634232
1.13175,0.613558
1.132,0.639838
1.13225,0.622272
1.1325,0.604819
1.13275,0.631779
1.133,0.616119
1.13325,0.649505
1.1335,0.62224
1.13375,0.679758
1.134,0.69672
1.13425,0.667921
1.1345,0.681038
1.13475,0.663215
1.135,0.727398
1.13525,0.677731
1.1355,0.694392
1.13575,0.618225
1.136,0.63622
1.13625,0.701095
1.1365,0.68718
1.13675,0.617899
1.137,0.695242
1.13725,0.694908
1.1375,0.666775
1.13775,0.692705
1.138,0.615349
1.13825,0.646144
1.1385,0.665787
1.13875,0.651002
1.139,0.666674
1.13925,0.642762
1.1395,0.646061
1.13975,0.682492
1.14,0.652215
1.14025,0.675549
1.1405,0.675248
1.14075,0.662151
1.141,0.701811
1.14125,0.722436
1.1415,0.715648
1.14175,0.751655
1.142,0.729679
1.14225,0.736424
1.1425,0.718837
1.14275,0.76006
1.143,0.725802
1.14325,0.823161
1.1435,0.799785
1.14375,0.726568
1.144,0.762733
1.14425,0.773688
1.1445,0.720453
1.14475,0.718424
1.145,0.786433
1.14525,0.814758
1.1455,0.780525
1.14575,0.712822
1.146,0.786338
1.14625,0.727743
1.1465,0.758096
1.14675,0.747343
1.147,0.737766
1.14725,0.712261
1.1475,0.663202
1.14775,0.677182
1.148,0.721703
1.14825,0.708033
1.1485,0.680619
1.14875,0.645737
1.149,0.681891
1.14925,0.662157
1.1495,0.675824
1.14975,0.690282
1.15,0.688459
1.15025,0.692392
1.1505,0.692837
1.15075,0.680033
1.151,0.707682
1.15125,0.718699
1.1515,0.674803
1.15175,0.73424
1.152,0.691874
1.15225,0.653176
1.1525,0.736666
1.15275,0.707404
1.153,0.696302
1.15325,0.650773
1.1535,0.619067
1.15375,0.648934
1.154,0.646259
1.15425,0.588857
1.1545,0.651656
1.15475,0.596189
1.155,0.588423
1.15525,0.533397
1.1555,0.600579
1.15575,0.564577
1.156,0.60908
1.15625,0.529004
1.1565,0.624598
1.15675,0.546498
1.157,0.534523
1.15725,0.594615
1.1575,0.58343
1.15775,0.613364
1.158,0.591507
1.15825,0.607688
1.1585,0.628768
1.15875,0.653868
1.159,0.644044
1.15925,0.650668
1.1595,0.644688
1.15975,0.701735
1.16,0.664766
1.16025,0.676032
1.1605,0.715078
1.16075,0.698405
1.161,0.686744
1.16125,0.705203
1.1615,0.681214
1.16175,0.696751
1.162,0.675503
1.16225,0.695397
1.1625,0.644077
1.16275,0.680722
1.163,0.630751
1.16325,0.666272
1.1635,0.650577
1.16375,0.588283
1.164,0.634721
1.16425,0.672925
1.1645,0.62001
1.16475,0.676991
1.165,0.568169
1.16525,0.641684
1.1655,0.613642
1.16575,0.65109
1.166,0.678062
1.16625,0.622663
1.1665,0.672488
1.16675,0.635631
1.167,0.651952
1.16725,0.642003
1.1675,0.675118
1.16775,0.618448
1.168,0.688489
1.16825,0.64367
1.1685,0.64815
1.16875,0.627168
1.169,0.646166
1.16925,0.647127
1.1695,0.652188
1.16975,0.63778
1.17,0.609327
1.17025,0.59713
1.1705,0.574315
1.17075,0.57563
1.171,0.575171
1.17125,0.538339
1.1715,0.534053
1.17175,0.555265
1.172,0.508445
1.17225,0.517828
1.1725,0.44987
1.17275,0.42784
1.173,0.559356
1.17325,0.479442
1.1735,0.446354
1.17375,0.49409
1.174,0.445179
1.17425,0.521165
1.1745,0.436816
1.17475,0.453917
1.175,0.469601
1.17525,0.497388
1.1755,0.539203
1.17575,0.559857
1.176,0.533567
1.17625,0.552526
1.1765,0.557974
1.17675,0.573935
1.177,0.597454
1.17725,0.599958
1.1775,0.541632
1.17775,0.48835
1.178,0.549224
1.17825,0.535102
1.1785,0.537585
1.17875,0.515771
1.179,0.489468
1.17925,0.502809
1.1795,0.493491
1.17975,0.479405
1.18,0.476321
1.18025,0.48608
1.1805,0.467811
1.18075,0.49789
1.181,0.461861
1.18125,0.442601
1.1815,0.421021
1.18175,0.470042
1.182,0.473485
1.18225,0.482511
1.1825,0.520014
1.18275,0.533021
1.183,0.53771
1.18325,0.487085
1.1835,0.510025
1.18375,0.470989
1.184,0.472801
1.18425,0.567379
1.1845,0.502434
1.18475,0.559918
1.185,0.556056
1.18525,0.564592
1.1855,0.51554
1.18575,0.537963
1.186,0.560827
1.18625,0.561976
1.1865,0.521076
1.18675,0.495846
1.187,0.493911
1.18725,0.498382
1.1875,0.49678
1.18775,0.449655
1.188,0.464732
1.18825,0.402381
1.1885,0.443792
1.18875,0.388726
1.189,0.394076
1.18925,0.392007
1.1895,0.369581
1.18975,0.34786
1.19,0.396367
1.19025,0.389225
1.1905,0.346269
1.19075,0.337201
1.191,0.335376
1.19125,0.357692
1.1915,0.357071
1.19175,0.33859
1.192,0.38113
1.19225,0.360731
1.1925,0.368668
1.19275,0.363652
1.193,0.332647
1.19325,0.321497
1.1935,0.371237
1.19375,0.289056
1.194,0.33323
1.19425,0.40084
1.1945,0.270336
1.19475,0.344905
1.195,0.273685
1.19525,0.334586
1.1955,0.288876
1.19575,0.291408
1.196,0.23261
1.19625,0.267994
1.1965,0.301114
1.19675,0.276373
1.197,0.247328
1.19725,0.208108
1.1975,0.189798
1.19775,0.203769
1.198,0.216708
1.19825,0.233833
1.1985,0.230195
1.19875,0.257233
1.199,0.262198
1.19925,0.23641
1.1995,0.279992
1.19975,0.277992
1.2,0.281172
1.20025,0.294643
1.2005,0.30641
1.20075,0.297702
1.201,0.327741
1.20125,0.321184
1.2015,0.31502
1.20175,0.314539
1.202,0.335932
1.20225,0.309717
1.2025,0.294175
1.20275,0.262306
1.203,0.316218
1.20325,0.29309
1.2035,0.354185
1.20375,0.294717
1.204,0.280597
1.20425,0.229639
1.2045,0.245153
1.20475,0.236335
1.205,0.255983
1.20525,0.229297
1.2055,0.185141
1.20575,0.217438
1.206,0.253003
1.20625,0.151448
1.2065,0.180528
1.20675,0.215771
1.207,0.184647
1.20725,0.155255
1.2075,0.174176
1.20775,0.157838
1.208,0.209471
1.20825,0.217234
1.2085,0.187635
1.20875,0.197469
1.209,0.199209
1.20925,0.214088
1.2095,0.1919
1.20975,0.176703
1.21,0.217881
1.21025,0.161659
1.2105,0.156091
1.21075,0.205767
1.211,0.14878
1.21125,0.131325
1.2115,0.182186
1.21175,0.155191
1.212,0.132865
1.21225,0.0791158
1.2125,0.121829
1.21275,0.0367435
1.213,0.0365171
1.21325,0.0131836
1.2135,0.0664998
1.21375,0.0313033
1.214,0.0895154
1.21425,-0.0174499
1.2145,0.0118524
1.21475,0.0518879
1.215,0.0162102
1.21525,-0.0193415
1.2155,0.0262564
1.21575,0.0522064
1.216,0.0168146
1.21625,0.0359964
1.2165,0.0215772
1.21675,0.0470464
1.217,0.0150006
1.21725,0.0463625
1.2175,0.014099
1.21775,0.0414254
1.218,0.0619476
1.21825,0.0652134
1.2185,0.0512975
1.21875,0.0283774
1.219,0.0687194
1.21925,0.0379199
1.2195,0.0351726
1.21975,0.0368397
1.22,0.0335831
1.22025,0.0318731
1.2205,0.0426176
1.22075,0.0317117
1.221,0.0379157
1.22125,0.0485827
1.2215,0.0421817
1.22175,0.0148782
1.222,-0.00404432
1.22225,0.0152154
1.2225,-0.00765539
1.22275,0.0106333
1.223,0.0389462
1.22325,-0.000261502
1.2235,0.0261217
1.22375,0.0336121
1.224,-0.0201645
1.22425,-0.0268146
1.2245,0.0434508
1.22475,0.0623559
1.225,0.0480148
1.22525,0.0107521
1.2255,0.0735655
1.22575,0.00925093
1.226,-0.0101447
1.22625,0.0518002
1.2265,0.00199964
1.22675,0.0895463
1.227,0.0382372
1.22725,0.0145247
1.2275,-0.031021
1.22775,0.00286298
1.228,0.0222206
1.22825,-0.00846514
1.2285,-0.0407596
1.22875,-0.0163537
1.229,-0.0488575
1.22925,-0.0599559
1.2295,-0.082315
1.22975,-0.100971
1.23,-0.0824098
1.23025,-0.139096
1.2305,-0.125709
1.23075,-0.119641
1.231,-0.143852
1.23125,-0.171624
1.2315,-0.113572
1.23175,-0.128873
1.232,-0.203192
1.23225,-0.208478
1.2325,-0.170273
1.23275,-0.143831
1.233,-0.182851
1.23325,-1.67E-01
1.2335,-0.138058
1.23375,-0.124449
1.234,-0.149762
1.23425,-0.180964
1.2345,-0.0933003
1.23475,-0.141371
1.235,-0.0919802
1.23525,-0.128379
1.2355,-0.181959
1.23575,-0.113526
1.236,-0.137995
1.23625,-0.174897
1.2365,-0.149935
1.23675,-0.185357
1.237,-0.215977
1.23725,-0.17676
1.2375,-0.217131
1.23775,-0.228103
1.238,-0.198276
1.23825,-0.189187
1.2385,-0.241852
1.23875,-0.201143
1.239,-0.204458
1.23925,-0.241779
1.2395,-0.252528
1.23975,-0.25599
1.24,-0.231401
1.24025,-0.228485
1.2405,-0.196623
1.24075,-0.202881
1.241,-0.169313
1.24125,-0.189101
1.2415,-0.168736
1.24175,-0.162272
1.242,-0.160688
1.24225,-0.163454
1.2425,-0.150008
1.24275,-9.53E-02
1.243,-0.122927
1.24325,-0.178492
1.2435,-0.0807377
1.24375,-0.0717483
1.244,-0.129873
1.24425,-0.176246
1.2445,-0.0966031
1.24475,-0.13442
1.245,-0.193421
1.24525,-0.162464
1.2455,-0.213063
1.24575,-0.195246
1.246,-0.222807
1.24625,-0.189201
1.2465,-0.230205
1.24675,-0.19753
1.247,-0.217713
1.24725,-0.169687
1.2475,-0.2235
1.24775,-0.238801
1.248,-0.226252
1.24825,-0.21508
1.2485,-0.258608
1.24875,-0.294488
1.249,-0.273523
1.24925,-0.26532
1.2495,-0.257551
1.24975,-0.250179
1.25,-0.249846
1.25025,-0.250916
1.2505,-0.252197
1.25075,-0.237666
1.251,-0.277058
1.25125,-0.207439
1.2515,-0.232063
1.25175,-0.26713
1.252,-0.309766
1.25225,-0.208586
1.2525,-0.243419
1.25275,-0.305116
1.253,-0.270464
1.25325,-0.319929
1.2535,-0.32768
1.25375,-0.326687
1.254,-0.303103
1.25425,-0.360858
1.2545,-0.372375
1.25475,-0.341479
1.255,-0.3847
1.25525,-0.348608
1.2555,-0.320387
1.25575,-0.341186
1.256,-0.292495
1.25625,-0.375173
1.2565,-0.421337
1.25675,-0.381571
1.257,-0.34368
1.25725,-0.352819
1.2575,-0.393763
1.25775,-0.314831
1.258,-0.342807
1.25825,-0.297284
1.2585,-0.301231
1.25875,-0.284256
1.259,-0.281901
1.25925,-0.268247
1.2595,-0.251693
1.25975,-0.245397
1.26,-0.255508
1.26025,-0.213242
1.2605,-0.218065
1.26075,-0.23047
1.261,-0.202547
1.26125,-0.268537
1.2615,-0.234693
1.26175,-0.242456
1.262,-0.245824
1.26225,-0.263581
1.2625,-0.249154
1.26275,-0.277676
1.263,-0.270133
1.26325,-0.29871
1.2635,-0.258176
1.26375,-0.306115
1.264,-0.260573
1.26425,-0.266023
1.2645,-0.266588
1.26475,-0.284039
1.265,-0.319817
1.26525,-0.211987
1.2655,-0.293727
1.26575,-0.293069
1.266,-0.32681
1.26625,-0.275088
1.2665,-0.301351
1.26675,-0.230784
1.267,-0.243759
1.26725,-0.236469
1.2675,-0.25001
1.26775,-0.263675
1.268,-0.216699
1.26825,-0.244727
1.2685,-0.244052
1.26875,-0.225276
1.269,-0.258804
1.26925,-0.274422
1.2695,-0.251428
1.26975,-0.270891
1.27,-0.272809
1.27025,-0.298294
1.2705,-0.320942
1.27075,-0.304497
1.271,-0.340336
1.27125,-0.343748
1.2715,-0.348669
1.27175,-0.341817
1.272,-0.338873
1.27225,-0.382389
1.2725,-0.343281
1.27275,-0.336289
1.273,-0.387512
1.27325,-0.410332
1.2735,-0.370562
1.27375,-0.320879
1.274,-0.363224
1.27425,-0.382883
1.2745,-0.332736
1.27475,-0.396029
1.275,-0.346253
1.27525,-0.342295
1.2755,-0.3061
1.27575,-0.294182
1.276,-0.301185
1.27625,-0.300482
1.2765,-0.335602
1.27675,-0.331682
1.277,-0.322724
1.27725,-0.284097
1.2775,-0.328584
1.27775,-0.265572
1.278,-0.292966
1.27825,-0.307624
1.2785,-0.30709
1.27875,-0.298686
1.279,-0.317057
1.27925,-0.302769
1.2795,-0.306425
1.27975,-0.306838
1.28,-0.32925
1.28025,-0.302846
1.2805,-0.309003
1.28075,-0.297167
1.281,-0.302703
1.28125,-0.268441
1.2815,-0.29959
1.28175,-0.264715
1.282,-0.276959
1.28225,-0.286151
1.2825,-0.285454
1.28275,-0.290423
1.283,-0.262848
1.28325,-0.24263
1.2835,-0.189772
1.28375,-0.197041
1.284,-0.219336
1.28425,-0.219788
1.2845,-0.209484
1.28475,-0.265236
1.285,-0.157693
1.28525,-0.212705
1.2855,-0.191152
1.28575,-0.207154
1.286,-0.138901
1.28625,-0.205718
1.2865,-0.217842
1.28675,-0.221537
1.287,-0.237209
1.28725,-0.229949
1.2875,-0.238919
1.28775,-0.253793
1.288,-0.271048
1.28825,-0.275332
1.2885,-0.244158
1.28875,-0.247646
1.289,-0.277537
1.28925,-0.280804
1.2895,-0.304074
1.28975,-0.296964
1.29,-0.314345
1.29025,-0.294659
1.2905,-0.287777
1.29075,-0.266277
1.291,-0.270105
1.29125,-0.280251
1.2915,-0.300909
1.29175,-0.274141
1.292,-0.293688
1.29225,-0.298248
1.2925,-0.285488
1.29275,-0.292276
1.293,-0.274624
1.29325,-0.284645
1.2935,-0.178506
1.29375,-0.204829
1.294,-0.245146
1.29425,-0.276269
1.2945,-0.284236
1.29475,-0.205093
1.295,-0.236058
1.29525,-0.22917
1.2955,-0.282916
1.29575,-0.317478
1.296,-0.231406
1.29625,-0.265754
1.2965,-0.232009
1.29675,-0.267997
1.297,-0.291569
1.29725,-0.323161
1.2975,-0.282036
1.29775,-0.273774
1.298,-0.275092
1.29825,-0.263456
1.2985,-0.212716
1.29875,-0.212702
1.299,-0.213151
1.29925,-0.240897
1.2995,-0.231358
1.29975,-0.215193
1.3,-0.195946
1.30025,-0.176076
1.3005,-0.168087
1.30075,-0.165091
1.301,-0.126801
1.30125,-0.164397
1.3015,-0.0854809
1.30175,-0.175063
1.302,-0.137946
1.30225,-0.144546
1.3025,-0.0626908
1.30275,-0.096851
1.303,-0.142408
1.30325,-0.0693708
1.3035,-1.68E-01
1.30375,-0.0655215
1.304,-0.134711
1.30425,-0.168765
1.3045,-0.169192
1.30475,-0.166068
1.305,-0.128752
1.30525,-0.156238
1.3055,-0.0877771
1.30575,-0.184143
1.306,-0.136143
1.30625,-0.101458
1.3065,-0.117693
1.30675,-0.123562
1.307,-0.169457
1.30725,-0.126417
1.3075,-0.145419
1.30775,-0.0940881
1.308,-0.112365
1.30825,-0.10071
1.3085,-0.0933561
1.30875,-0.105896
1.309,-0.0918647
1.30925,-0.0791581
1.3095,-0.0661176
1.30975,-0.0614255
1.31,-0.0573636
1.31025,-0.0969072
1.3105,-0.0583616
1.31075,-0.0554467
1.311,-0.0982862
1.31125,-0.0684741
1.3115,-0.128342
1.31175,-0.11401
1.312,-0.138186
1.31225,-0.132987
1.3125,-0.119577
1.31275,-0.182949
1.313,-0.141203
1.31325,-0.148157
1.3135,-0.118658
1.31375,-0.15597
1.314,-0.160127
1.31425,-0.17794
1.3145,-0.226321
1.31475,-0.209477
1.315,-0.18216
1.31525,-0.15482
1.3155,-0.143676
1.31575,-0.170197
1.316,-0.13357
1.31625,-0.114043
1.3165,-0.133007
1.31675,-0.108585
1.317,-0.0718333
1.31725,-0.102466
1.3175,-0.10046
1.31775,-0.100559
1.318,-0.09556
1.31825,-0.0658511
1.3185,-0.0400313
1.31875,-0.0123598
1.319,-0.0404481
1.31925,-0.0579046
1.3195,0.00466988
1.31975,-0.0551236
1.32,-0.0456992
1.32025,-0.0438288
1.3205,-0.0248546
1.32075,-0.0392529
1.321,-0.0286418
1.32125,-0.0294289
1.3215,-0.031171
1.32175,-0.0404215
1.322,-0.0357253
1.32225,-0.0632087
1.3225,-0.0327479
1.32275,-0.0473358
1.323,-0.0900189
1.32325,-0.0532956
1.3235,-0.00427411
1.32375,-0.0178414
1.324,-0.0336865
1.32425,-0.0460573
1.3245,0.0171388
1.32475,0.0482761
1.325,-0.00226917
1.32525,0.0538085
1.3255,0.0176778
1.32575,0.0508393
1.326,0.0361998
1.32625,0.0983515
1.3265,0.0887258
1.32675,0.119737
1.327,0.0324835
1.32725,0.119564
1.3275,0.00995958
1.32775,0.0662523
1.328,0.0293763
1.32825,0.0553193
1.3285,0.0669339
1.32875,0.04391
1.329,0.0346964
1.32925,0.0131659
1.3295,0.0214025
1.32975,0.0222551
1.33,-0.00910471
1.33025,-0.0155918
1.3305,-0.0350089
1.33075,-0.0344734
1.331,-0.0509363
1.33125,-0.0431757
1.3315,-0.042128
1.33175,-0.0221685
1.332,0.00318714
1.33225,-0.0242649
1.3325,-0.0584015
1.33275,-0.0228175
1.333,0.021367
1.33325,-0.0356548
1.3335,-0.033115
1.33375,0.0266546
1.334,0.00380174
1.33425,-0.0063963
1.3345,0.0359505
1.33475,0.0506447
1.335,0.0420009
1.33525,0.112238
1.3355,0.0320983
1.33575,0.0601275
1.336,0.0609459
1.33625,0.0898041
1.3365,0.0307254
1.33675,0.0345743
1.337,0.00368789
1.33725,0.00367516
1.3375,0.0564805
1.33775,0.0249995
1.338,0.0643177
1.33825,0.0156949
1.3385,0.0607616
1.33875,0.0603992
1.339,0.0437861
1.33925,0.0524644
1.3395,0.00840076
1.33975,0.0736967
1.34,0.0797865
1.34025,0.0686846
1.3405,0.075634
1.34075,0.05852
1.341,0.0767384
1.34125,0.0890577
1.3415,0.123456
1.34175,0.0994754
1.342,0.139244
1.34225,0.153401
1.3425,0.135418
1.34275,0.104915
1.343,0.198806
1.34325,0.154391
1.3435,0.161703
1.34375,0.191164
1.344,0.180982
1.34425,0.159556
1.3445,0.163889
1.34475,0.232355
1.345,0.147679
1.34525,0.143419
1.3455,0.155397
1.34575,0.208252
1.346,0.128405
1.34625,0.162013
1.3465,0.180872
1.34675,0.164892
1.347,0.146658
1.34725,0.0935723
1.3475,0.16237
1.34775,0.150519
1.348,0.0850713
1.34825,0.0894754
1.3485,0.0892604
1.34875,0.0855672
1.349,0.105213
1.34925,0.111247
1.3495,0.123089
1.34975,0.124189
1.35,0.127369
1.35025,0.131238
1.3505,0.138101
1.35075,0.165885
1.351,0.152574
1.35125,0.142776
1.3515,0.163566
1.35175,0.148363
1.352,0.173832
1.35225,0.152262
1.3525,0.174068
1.35275,0.106598
1.353,0.118426
1.35325,0.135634
1.3535,0.142153
1.35375,0.0805823
1.354,0.112974
1.35425,0.119111
1.3545,0.068252
1.35475,0.0364681
1.355,0.073881
1.35525,0.103727
1.3555,0.0881494
1.35575,0.0985358
1.356,0.0453939
1.35625,0.124241
1.3565,0.0759666
1.35675,0.0208072
1.357,0.0941829
1.35725,0.128424
1.3575,0.106287
1.35775,0.100673
1.358,0.133614
1.35825,0.117425
1.3585,0.130207
1.35875,0.134622
1.359,0.15984
1.35925,0.14451
1.3595,0.169089
1.35975,0.19498
1.36,0.181745
1.36025,0.217771
1.3605,0.209776
1.36075,0.223455
1.361,0.207364
1.36125,0.214336
1.3615,0.218432
1.36175,0.220584
1.362,0.21589
1.36225,0.184572
1.3625,0.200984
1.36275,0.154923
1.363,0.205607
1.36325,0.183325
1.3635,0.119756
1.36375,0.177312
1.364,0.122671
1.36425,0.136401
1.3645,0.148128
1.36475,0.216684
1.365,0.0992831
1.36525,0.151307
1.3655,0.162471
1.36575,0.173236
1.366,0.19753
1.36625,0.172807
1.3665,0.18225
1.36675,0.228285
1.367,0.22249
1.36725,0.224933
1.3675,0.221422
1.36775,0.257034
1.368,0.26706
1.36825,0.173292
1.3685,0.234417
1.36875,0.229423
1.369,0.196876
1.36925,0.185895
1.3695,0.180971
1.36975,0.184957
1.37,0.181374
1.37025,0.167081
1.3705,0.154563
1.37075,0.155617
1.371,0.123535
1.37125,0.124442
1.3715,0.114728
1.37175,0.104959
1.372,0.127097
1.37225,0.0456452
1.3725,0.065891
1.37275,0.148742
1.373,0.0353797
1.37325,0.0378642
1.3735,0.134067
1.37375,0.0387039
1.374,0.137469
1.37425,0.102821
1.3745,0.136849
1.37475,0.063839
1.375,0.100434
1.37525,0.13659
1.3755,0.155579
1.37575,0.163706
1.376,0.121769
1.37625,0.124091
1.3765,0.0977169
1.37675,0.175608
1.377,0.164426
1.37725,0.162607
1.3775,0.148805
1.37775,0.168315
1.378,0.176635
1.37825,0.171469
1.3785,0.165409
1.37875,0.162477
1.379,0.136237
1.37925,0.141625
1.3795,0.140651
1.37975,0.128419
1.38,0.108926
1.38025,0.110962
1.3805,0.145537
1.38075,0.129669
1.381,0.148812
1.38125,0.116966
1.3815,0.183911
1.38175,0.139729
1.382,0.110108
1.38225,0.155819
1.3825,0.145063
1.38275,0.158549
1.383,0.207284
1.38325,0.191431
1.3835,0.17871
1.38375,0.164871
1.384,0.250324
1.38425,0.204139
1.3845,0.290842
1.38475,0.218765
1.385,0.289041
1.38525,0.192699
1.3855,0.263288
1.38575,0.191113
1.386,0.231986
1.38625,0.214858
1.3865,0.201609
1.38675,0.192478
1.387,0.192529
1.38725,0.180045
1.3875,0.162427
1.38775,0.144017
1.388,0.172804
1.38825,0.122011
1.3885,0.165028
1.38875,0.130897
1.389,0.115248
1.38925,0.126123
1.3895,0.122878
1.38975,0.066988
1.39,0.0822225
1.39025,0.0618432
1.3905,0.10404
1.39075,0.0798212
1.391,0.0870417
1.39125,0.0886364
1.3915,0.0955422
1.39175,0.0908956
1.392,0.0939464
1.39225,0.115435
1.3925,0.0833687
1.39275,0.0993868
1.393,0.0719436
1.39325,0.0857524
1.3935,0.175177
1.39375,0.060919
1.394,0.100088
1.39425,0.108927
1.3945,0.110258
1.39475,0.0865729
1.395,0.126012
1.39525,0.0322852
1.3955,0.0595284
1.39575,0.0154041
1.396,0.055051
1.39625,0.0766377
1.3965,0.0727282
1.39675,0.0583928
1.397,0.00779748
1.39725,0.0274085
1.3975,0.05397
1.39775,0.0794181
1.398,0.0631315
1.39825,0.0445577
1.3985,0.0578805
1.39875,0.0445608
1.399,0.0560184
1.39925,0.0857899
1.3995,0.0561525
1.39975,0.0831029
1.4,0.0930574
1.40025,0.103542
1.4005,0.100628
1.40075,0.12693
1.401,0.148836
1.40125,0.0980475
1.4015,0.154974
1.40175,0.140361
1.402,0.200555
1.40225,0.126257
1.4025,0.143941
1.40275,0.116618
1.403,0.13046
1.40325,0.199791
1.4035,0.165051
1.40375,0.144265
1.404,0.158248
1.40425,0.0756712
1.4045,0.154323
1.40475,0.0823695
1.405,0.149081
1.40525,0.113827
1.4055,0.0895207
1.40575,0.0787925
1.406,0.0724586
1.40625,0.142834
1.4065,0.0329963
1.40675,0.0439549
1.407,0.0808898
1.40725,0.0760107
1.4075,0.0972376
1.40775,0.0979612
1.408,0.0713768
1.40825,0.0592032
1.4085,0.0939442
1.40875,0.0994566
1.409,0.0929273
1.40925,0.063551
1.4095,0.0771579
1.40975,0.112026
1.41,0.11164
1.41025,0.116973
1.4105,0.0613208
1.41075,0.0680847
1.411,0.0700255
1.41125,0.0845684
1.4115,0.0243817
1.41175,0.0452618
1.412,0.0609818
1.41225,0.0395761
1.4125,0.0218404
1.41275,0.0256577
1.413,-0.0480732
1.41325,0.0118372
1.4135,-0.0115007
1.41375,-0.0342354
1.414,-0.102747
1.41425,-0.0825619
1.4145,-0.0829706
1.41475,-0.0397292
1.415,-0.0635237
1.41525,-0.0239014
1.4155,-0.0850105
1.41575,0.0152432
1.416,-0.0489223
1.41625,-0.0701184
1.4165,-0.0607951
1.41675,0.0167158
1.417,-0.00473324
1.41725,0.0168009
1.4175,0.0389377
1.41775,0.0268801
1.418,-0.0254796
1.41825,0.0778816
1.4185,0.0672384
1.41875,0.0409833
1.419,0.000302495
1.41925,0.0131672
1.4195,0.0306778
1.41975,0.0251756
1.42,0.0498911
1.42025,0.0411023
1.4205,0.0205072
1.42075,0.0243671
1.421,0.0285188
1.42125,-0.00296535
1.4215,-0.0182049
1.42175,0.0126384
1.422,0.00963476
1.42225,0.00202083
1.4225,-0.0621707
1.42275,0.062935
1.423,-0.0263673
1.42325,-0.00337572
1.4235,-0.0501372
1.42375,-0.0101985
1.424,0.0722417
1.42425,0.0233768
1.4245,0.0587019
1.42475,0.0638625
1.425,0.0322621
1.42525,0.0160368
1.4255,0.0285292
1.42575,0.0540854
1.426,0.047042
1.42625,0.0874998
1.4265,0.0658786
1.42675,0.0464987
1.427,0.0390516
1.42725,0.0840403
1.4275,0.0802462
1.42775,-0.0120148
1.428,0.00128955
1.42825,0.0310272
1.4285,0.0108055
1.42875,0.0305425
1.429,0.0117711
1.42925,-0.00461334
1.4295,-0.0150073
1.42975,-0.04348
1.43,-0.0379555
1.43025,-0.0370497
1.4305,-0.0462334
1.43075,-0.0736787
1.431,-0.0506695
1.43125,-0.0722906
1.4315,-0.126118
1.43175,-0.112478
1.432,-0.0971019
1.43225,-0.0940614
1.4325,-0.102554
1.43275,-0.0563131
1.433,-0.0945657
1.43325,-0.10744
1.4335,-0.103035
1.43375,-0.0290345
1.434,-0.0367834
1.43425,-0.0931618
1.4345,-0.0127783
1.43475,-0.00375554
1.435,-0.0164397
1.43525,-0.0723692
1.4355,-0.0245821
1.43575,-0.10484
1.436,-0.0896797
1.43625,-0.0965171
1.4365,-0.0965191
1.43675,-0.0966275
1.437,-0.115489
1.43725,-0.069046
1.4375,-0.0570931
1.43775,-0.116167
1.438,-0.0946158
1.43825,-0.122589
1.4385,-0.104049
1.43875,-0.107066
1.439,-0.0990858
1.43925,-0.0911043
1.4395,-0.0728362
1.43975,-0.0648468
1.44,-0.0577634
1.44025,-0.0980624
1.4405,-0.0904633
1.44075,-0.0469245
1.441,-0.0333687
1.44125,-0.0446353
1.4415,-0.0296646
1.44175,-0.0257725
1.442,-0.0325823
1.44225,0.00191356
1.4425,0.0522627
1.44275,0.007305
1.443,0.00939345
1.44325,0.00661953
1.4435,-0.0211569
1.44375,-0.00522259
1.444,-0.0165236
1.44425,0.0310387
1.4445,0.0735713
1.44475,5.83E-02
1.445,0.0363201
1.44525,0.0237498
1.4455,-0.004169
1.44575,-0.0448475
1.446,-0.0248565
1.44625,0.0184596
1.4465,-0.0233679
1.44675,-0.0363777
1.447,-0.0529083
1.44725,-0.052374
1.4475,-0.0612477
1.44775,-0.106254
1.448,-0.0390705
1.44825,-0.0665637
1.4485,-0.0639292
1.44875,-0.0652092
1.449,-0.117449
1.44925,-0.0796146
1.4495,-0.0818445
1.44975,-0.0672632
1.45,-0.0713941
1.45025,-0.0637237
1.4505,-0.0675151
1.45075,-0.0631784
1.451,-0.07877
1.45125,-0.068446
1.4515,-0.0375448
1.45175,-0.078947
1.452,-0.0642091
1.45225,-0.100106
1.4525,-0.129578
1.45275,-0.0909482
1.453,-0.115262
1.45325,-0.0717145
1.4535,-0.140011
1.45375,-0.0985074
1.454,-0.104581
1.45425,-0.107665
1.4545,-0.119985
1.45475,-0.186167
1.455,-0.127218
1.45525,-0.18713
1.4555,-0.197719
1.45575,-0.194668
1.456,-0.15701
1.45625,-0.194011
1.4565,-0.167347
1.45675,-0.117701
1.457,-0.099484
1.45725,-0.155833
1.4575,-0.119103
1.45775,-0.1377
1.458,-0.147284
1.45825,-0.115183
1.4585,-0.0948419
1.45875,-0.0975414
1.459,-0.0750134
1.45925,-0.0679368
1.4595,-0.0682008
1.45975,-0.0316285
1.46,-0.017454
1.46025,-0.00526122
1.4605,-0.00490209
1.46075,-0.0757166
1.461,-0.0142128
1.46125,-0.0546104
1.4615,-0.0358515
1.46175,-0.0408781
1.462,-0.039994
1.46225,-0.0525124
1.4625,-0.0192303
1.46275,-0.0620283
1.463,-0.0504232
1.46325,-0.0395253
1.4635,-0.0381234
1.46375,-0.0494472
1.464,-0.0405431
1.46425,-0.0782417
1.4645,0.00594716
1.46475,-0.0679642
1.465,-0.0958911
1.46525,-0.0807998
1.4655,-0.10416
1.46575,-0.118687
1.466,-0.0265
1.46625,-0.0643882
1.4665,-0.0354848
1.46675,-0.011604
1.467,-0.0144612
1.46725,-0.0654326
1.4675,-0.0180854
1.46775,-0.0313957
1.468,-0.0182511
1.46825,-0.0133378
1.4685,-0.0341375
1.46875,0.000886985
1.469,-0.0100755
1.46925,-0.0587862
1.4695,-0.0590638
1.46975,-0.0556313
1.47,-0.0357853
1.47025,-0.0561611
1.4705,-0.0821009
1.47075,-0.0776892
1.471,-0.0884581
1.47125,-0.102096
1.4715,-0.0827949
1.47175,-0.15775
1.472,-0.171197
1.47225,-0.107144
1.4725,-0.159339
1.47275,-0.0846478
1.473,-0.172322
1.47325,-0.10694
1.4735,-0.177495
1.47375,-0.149422
1.474,-0.138787
1.47425,-0.152234
1.4745,-0.10222
1.47475,-0.174363
1.475,-0.11437
1.47525,-0.150065
1.4755,-0.160356
1.47575,-0.0694769
1.476,-0.064626
1.47625,-0.0344767
1.4765,-0.0757709
1.47675,-0.0700245
1.477,-0.0385865
1.47725,-0.0873145
1.4775,-0.0659839
1.47775,-0.0627687
1.478,-0.10152
1.47825,-0.0575515
1.4785,-0.100179
1.47875,-0.0663318
1.479,-0.0912083
1.47925,-0.0834056
1.4795,-0.0906807
1.47975,-0.0671504
1.48,-0.1075
1.48025,-0.104204
1.4805,-0.0867465
1.48075,-0.0791105
1.481,-0.0891956
1.48125,-0.0816846
1.4815,-0.0704066
1.48175,-0.0657733
1.482,-0.0449746
1.48225,-0.0357603
1.4825,-0.0744998
1.48275,-0.071106
1.483,-0.0472684
1.48325,0.0234792
1.4835,0.0245032
1.48375,0.00332658
1.484,0.0252304
1.48425,0.036044
1.4845,0.0214651
1.48475,0.0649529
1.485,-0.0360791
1.48525,0.030809
1.4855,0.0203553
1.48575,0.011785
1.486,0.0128917
1.48625,-0.00830013
1.4865,0.00176462
1.48675,0.0591733
1.487,0.0185975
1.48725,-1.23E-02
1.4875,-0.00817482
1.48775,-0.0342084
1.488,-0.0543021
1.48825,-0.067059
1.4885,-0.0267702
1.48875,-0.0606969
1.489,-0.0981316
1.48925,-0.046422
1.4895,-0.103354
1.48975,-0.0565642
1.49,-0.0746814
1.49025,-0.112162
1.4905,-0.114645
1.49075,-0.075642
1.491,-0.0582154
1.49125,-0.0816403
1.4915,-0.0862343
1.49175,-0.0480682
1.492,-0.0758525
1.49225,-0.0799702
1.4925,-0.032923
1.49275,-0.0799579
1.493,-0.0401611
1.49325,-0.113475
1.4935,-0.0371407
1.49375,-0.0627548
1.494,-0.0202572
1.49425,-0.0554162
1.4945,-0.0516968
1.49475,-0.00271757
1.495,-0.105897
1.49525,-0.0941315
1.4955,-0.119787
1.49575,-0.0483325
1.496,-0.12118
1.49625,-0.0491591
1.4965,-0.109715
1.49675,-0.127235
1.497,-0.083463
1.49725,-0.0772041
1.4975,-0.0881337
1.49775,-0.0858703
1.498,-0.115728
1.49825,-0.0616284
1.4985,-0.0992195
1.49875,-0.0748611
1.499,-0.0363869
1.49925,-0.0754331
1.4995,-0.064608
1.49975,-0.038855
1.5,-0.0294575
1.50025,-0.016925
1.5005,-0.0218024
1.50075,-0.0147202
1.501,0.022593
1.50125,0.0380854
1.5015,0.00718668
1.50175,0.00228815
1.502,2.29E-02
1.50225,0.0352764
1.5025,0.0479724
1.50275,0.113802
1.503,0.070901
1.50325,0.00527454
1.5035,0.0436652
1.50375,-0.00768563
1.504,0.0518124
1.50425,-0.00315365
1.5045,0.0654329
1.50475,0.0139065
1.505,0.0149196
1.50525,0.0179536
1.5055,0.0437283
1.50575,-0.0326482
1.506,-0.0285959
1.50625,-0.0799435
1.5065,-0.0245383
1.50675,-0.00785237
1.507,0.0235079
1.50725,-0.00421029
1.5075,0.00686447
1.50775,-0.00927875
1.508,0.0179411
1.50825,-0.00496705
1.5085,0.0233533
1.50875,0.0300266
1.509,0.00411058
1.50925,0.030242
1.5095,0.0197833
1.50975,-0.00170556
1.51,0.0165771
1.51025,0.0504463
1.5105,0.0405397
1.51075,0.0261103
1.511,0.0153301
1.51125,-0.0185403
1.5115,0.00924423
1.51175,0.00765488
1.512,-0.0502789
1.51225,-0.0505307
1.5125,-0.0343593
1.51275,-0.0632554
1.513,-0.0282267
1.51325,-0.0765953
1.5135,-0.0930596
1.51375,-0.113513
1.514,-0.0539172
1.51425,-0.0980865
1.5145,-0.0675394
1.51475,-0.0930937
1.515,-0.10316
1.51525,-0.0763639
1.5155,-0.0259159
1.51575,-0.0882532
1.516,-0.0509671
1.51625,-0.0433683
1.5165,-0.0894525
1.51675,-0.0166295
1.517,-0.0551303
1.51725,-0.0003937
1.5175,-0.0328178
1.51775,0.0364187
1.518,0.0135728
1.51825,0.0418031
1.5185,0.0116705
1.51875,0.0096442
1.519,-0.00254052
1.51925,0.0697023
1.5195,0.0017782
1.51975,0.0402182
1.52,0.0207779
1.52025,0.0147999
1.5205,0.0198591
1.52075,0.0211322
1.521,0.0256252
1.52125,0.0138536
1.5215,0.0377358
1.52175,0.0618056
1.522,0.0198818
1.52225,0.0344653
1.5225,-0.00187431
1.52275,-0.00235546
1.523,0.0348051
1.52325,0.00796022
1.5235,0.0856914
1.52375,0.0913618
1.524,0.0214196
1.52425,0.0581374
1.5245,0.062829
1.52475,0.0191999
1.525,0.0595747
1.52525,0.113055
1.5255,0.100488
1.52575,0.0854202
1.526,0.100722
1.52625,0.142946
1.5265,0.0683623
1.52675,0.0604376
1.527,0.0471443
1.52725,0.0906623
1.5275,0.144755
1.52775,0.0349593
1.528,0.071185
1.52825,0.0699284
1.5285,0.0471767
1.52875,0.0400451
1.529,0.0278372
1.52925,0.0248
1.5295,0.0290134
1.52975,0.000107711
1.53,-0.00407258
1.53025,-0.00236609
1.5305,-0.0422678
1.53075,-0.0261155
1.531,-0.00939464
1.53125,-0.0233301
1.5315,-0.0537507
1.53175,0.0180149
1.532,-0.034401
1.53225,-0.0323777
1.5325,-0.0221061
1.53275,-0.0476849
1.533,-0.00258616
1.53325,-0.0515684
1.5335,-0.0120507
1.53375,-4.01E-02
1.534,-0.0165117
1.53425,0.00820821
1.5345,-0.0188763
1.53475,-0.000563264
1.535,0.081247
1.53525,-0.00240948
1.5355,-0.0129643
1.53575,-0.0126988
1.536,-0.00760652
1.53625,0.0427465
1.5365,0.0567126
1.53675,0.00142591
1.537,0.0228663
1.53725,-0.000315014
1.5375,-0.0158935
1.53775,0.00574744
1.538,-0.0229142
1.53825,0.00207194
1.5385,-0.0022307
1.53875,-0.00518304
1.539,-0.0365906
1.53925,-0.0426646
1.5395,-0.00265158
1.53975,-0.0475841
1.54,-0.0105202
1.54025,0.00919097
1.5405,0.0249408
1.54075,0.0271912
1.541,0.0432456
1.54125,0.0324978
1.5415,0.0708054
1.54175,0.0613603
1.542,0.0933687
1.54225,0.0772716
1.5425,0.0692363
1.54275,0.0974635
1.543,0.0635309
1.54325,0.0795629
1.5435,0.0826325
1.54375,0.183545
1.544,0.112097
1.54425,0.0965965
1.5445,0.0950586
1.54475,0.101099
1.545,0.0451807
1.54525,0.0669573
1.5455,0.0643053
1.54575,0.070826
1.546,0.078774
1.54625,0.106284
1.5465,0.0835525
1.54675,0.0175092
1.547,0.0446049
1.54725,0.0699341
1.5475,0.0394443
1.54775,0.030561
1.548,-0.00860783
1.54825,-0.0064544
1.5485,0.0693801
1.54875,0.0501178
1.549,0.005897
1.54925,0.0301483
1.5495,0.0219917
1.54975,0.0353744
1.55,0.0332127
1.55025,0.0442075
1.5505,0.049048
1.55075,0.0646936
1.551,0.0673365
1.55125,0.0643953
1.5515,0.0431965
1.55175,0.0841891
1.552,-0.0151865
1.55225,0.0537762
1.5525,0.0338791
1.55275,0.0634058
1.553,-0.0122979
1.55325,0.00533273
1.5535,0.0330659
1.55375,-0.0178237
1.554,-0.00815963
1.55425,0.014159
1.5545,-0.0511523
1.55475,-0.0524116
1.555,-0.0622591
1.55525,-0.0233037
1.5555,-0.00891235
1.55575,-0.101212
1.556,-0.0188539
1.55625,-0.0419282
1.5565,-0.0399311
1.55675,-0.0811055
1.557,-0.0528004
1.55725,-0.0469926
1.5575,-0.040218
1.55775,0.0232336
1.558,0.00688747
1.55825,-0.0186545
1.5585,0.00628267
1.55875,-0.0028329
1.559,0.0372823
1.55925,0.0579968
1.5595,0.0314724
1.55975,0.0483467
1.56,0.0491074
1.56025,0.0644046
1.5605,0.0957847
1.56075,0.043038
1.561,0.119103
1.56125,0.0844377
1.5615,0.0333461
1.56175,0.0751
1.562,0.100371
1.56225,0.0808488
1.5625,0.048836
1.56275,0.0743426
1.563,0.0226413
1.56325,0.0245285
1.5635,0.0502232
1.56375,0.0124764
1.564,0.060176
1.56425,0.116843
1.5645,0.0334562
1.56475,0.0166437
1.565,0.0636513
1.56525,0.11615
1.5655,0.103437
1.56575,0.0730283
1.566,0.0659753
1.56625,0.0334129
1.5665,0.0292824
1.56675,0.0627983
1.567,0.101159
1.56725,0.0787979
1.5675,0.101645
1.56775,0.0827271
1.568,0.0893164
1.56825,0.0430326
1.5685,0.120213
1.56875,0.0420176
1.569,0.051707
1.56925,0.0343336
1.5695,0.0958105
1.56975,0.0753286
1.57,0.0631499
1.57025,0.0393537
1.5705,0.0276816
1.57075,0.0271954
1.571,-0.00051966
1.57125,0.000604719
1.5715,-0.0113392
1.57175,-0.0249933
1.572,-0.0592141
1.57225,-0.0589997
1.5725,-0.0210242
1.57275,-0.0626893
1.573,-0.0314173
1.57325,-0.0337276
1.5735,-0.0531492
1.57375,-0.0306616
1.574,-0.0855321
1.57425,-0.0903878
1.5745,-0.0549323
1.57475,-0.0372196
1.575,-0.0707674
1.57525,-0.0709855
1.5755,0.0207955
1.57575,-0.0138684
1.576,-0.0345653
1.57625,0.0330674
1.5765,-0.031929
1.57675,0.0557922
1.577,0.0179445
1.57725,0.0495428
1.5775,0.0122676
1.57775,0.0361846
1.578,0.00991052
1.57825,0.0453216
1.5785,0.0445501
1.57875,0.016883
1.579,0.00505557
1.57925,0.0170449
1.5795,0.00582347
1.57975,-0.00222828
1.58,0.00545506
1.58025,-0.0268617
1.5805,-0.0162101
1.58075,-0.00714308
1.581,0.0143739
1.58125,-0.0159499
1.5815,-0.00543579
1.58175,0.00128324
1.582,1.36E-02
1.58225,-0.0156151
1.5825,0.0632762
1.58275,0.0128723
1.583,0.0301975
1.58325,0.0432935
1.5835,0.0562456
1.58375,0.115595
1.584,0.0559896
1.58425,0.0338484
1.5845,0.0918599
1.58475,0.0967926
1.585,0.0773936
1.58525,0.136181
1.5855,0.126014
1.58575,0.109134
1.586,0.0816034
1.58625,0.114759
1.5865,0.06927
1.58675,0.0498039
1.587,0.0540982
1.58725,0.0775254
1.5875,0.0831534
1.58775,0.0288282
1.588,0.00836923
1.58825,-0.00249006
1.5885,0.00396222
1.58875,0.0041036
1.589,-0.0277131
1.58925,0.033272
1.5895,-0.00408365
1.58975,-0.00734325
1.59,-0.00917187
1.59025,0.00355676
1.5905,-0.0294856
1.59075,-0.0141771
1.591,-0.0379406
1.59125,-0.00906189
1.5915,-0.025393
1.59175,-0.0222752
1.592,0.0186877
1.59225,0.00797486
1.5925,-0.0210509
1.59275,0.0130475
1.593,0.00332256
1.59325,-0.00370731
1.5935,0.0660072
1.59375,-0.0156656
1.594,-0.00871862
1.59425,-0.0472615
1.5945,-0.0512796
1.59475,-0.0412478
1.595,-0.0861856
1.59525,-0.0646416
1.5955,0.0122632
1.59575,-0.0508936
1.596,-0.0599173
1.59625,-0.063622
1.5965,-0.0701617
1.59675,-0.0188074
1.597,-0.0744825
1.59725,-0.0995711
1.5975,-0.0696819
1.59775,-0.0758124
1.598,-0.0867333
1.59825,-0.0524246
1.5985,-0.0484452
1.59875,-0.0672832
1.599,-0.0648942
1.59925,-0.0111108
1.5995,-0.0372026
1.59975,-0.00748474
1.6,0.00360655
1.60025,0.0121454
1.6005,0.0433348
1.60075,0.0212016
1.601,0.0699445
1.60125,0.0496285
1.6015,0.0762737
1.60175,0.0627321
1.602,0.0287679
1.60225,0.0680621
1.6025,0.0271874
1.60275,0.083602
1.603,0.102242
1.60325,0.110427
1.6035,0.0379217
1.60375,0.072466
1.604,0.0267623
1.60425,0.0581856
1.6045,0.0655815
1.60475,0.0443973
1.605,0.0106693
1.60525,0.0668848
1.6055,-0.0085241
1.60575,0.0161524
1.606,-0.0142046
1.60625,0.0296826
1.6065,0.0328489
1.60675,-0.0042163
1.607,-0.0112401
1.60725,-0.0215817
1.6075,0.037063
1.60775,-0.00506545
1.608,0.0278233
1.60825,0.040691
1.6085,0.0380441
1.60875,0.0197841
1.609,0.032428
1.60925,0.0228476
1.6095,0.0364958
1.60975,0.0437343
1.61,0.0244508
1.61025,0.030013
1.6105,0.00246615
1.61075,0.0159451
1.611,0.0252445
1.61125,0.0395342
1.6115,0.0134709
1.61175,-0.0145559
1.612,-0.0362948
1.61225,-0.0486831
1.6125,-0.0461008
1.61275,-0.0423105
1.613,-0.0194425
1.61325,-0.0952145
1.6135,-0.119471
1.61375,-0.0637753
1.614,-0.021846
1.61425,-0.0582999
1.6145,-0.0622417
1.61475,-0.0397239
1.615,-0.0622397
1.61525,-0.11552
1.6155,-0.129538
1.61575,-0.0575916
1.616,-0.0668381
1.61625,-0.100935
1.6165,-0.0716602
1.61675,-0.0220201
1.617,-0.0513811
1.61725,-0.0251563
1.6175,0.026987
1.61775,-0.0496933
1.618,0.0284002
1.61825,0.0136954
1.6185,-0.0171432
1.61875,-0.0102717
1.619,0.0571285
1.61925,0.00458117
1.6195,0.00741793
1.61975,0.0076279
1.62,0.0136394
1.62025,0.00432437
1.6205,0.013154
1.62075,0.00391593
1.621,-0.0030126
1.62125,-0.00106431
1.6215,0.00595585
1.62175,0.0180195
1.622,0.0311065
1.62225,0.0104495
1.6225,-0.00968014
1.62275,0.038494
1.623,0.00513366
1.62325,0.022159
1.6235,-0.0259737
1.62375,-0.0383303
1.624,0.0612459
1.62425,0.0590832
1.6245,-0.00958131
1.62475,0.0310453
1.625,0.0358246
1.62525,0.0458286
1.6255,0.0119026
1.62575,0.0912264
1.626,0.11137
1.62625,0.0130524
1.6265,0.0225851
1.62675,0.0793734
1.627,0.023754
1.62725,0.114138
1.6275,0.100887
1.62775,0.0897564
1.628,0.0287241
1.62825,0.00857576
1.6285,0.0252995
1.62875,0.0134148
1.629,0.00565464
1.62925,-0.0108961
1.6295,-0.00250933
1.62975,-0.0311832
1.63,-0.0384466
1.63025,-0.0358887
1.6305,-0.0358086
1.63075,-0.0874172
1.631,-0.0814678
1.63125,-0.0797681
1.6315,-0.12306
1.63175,-0.0649942
1.632,-0.0625422
1.63225,-0.109226
1.6325,-0.0564155
1.63275,-0.0685819
1.633,-0.0823194
1.63325,-0.0732875
1.6335,-0.0683109
1.63375,-0.0360356
1.634,-0.0542273
1.63425,-0.0350647
1.6345,-0.00536886
1.63475,-0.0671925
1.635,0.00117531
1.63525,0.0323527
1.6355,0.012481
1.63575,-0.0349728
1.636,-0.0129858
1.63625,0.0158817
1.6365,-0.0254275
1.63675,0.00586996
1.637,-0.0691062
1.63725,-0.0563573
1.6375,-0.0316604
1.63775,-0.033584
1.638,-0.0469922
1.63825,-0.0386693
1.6385,-0.0464375
1.63875,-0.0541861
1.639,-0.0322288
1.63925,-0.0790251
1.6395,-0.0422391
1.63975,-0.0887318
1.64,-0.0466
1.64025,-0.0384626
1.6405,-0.0450584
1.64075,0.00294944
1.641,-0.0243213
1.64125,0.0150085
1.6415,0.0125161
1.64175,0.0133198
1.642,0.0225235
1.64225,0.0346238
1.6425,0.0727204
1.64275,0.0709852
1.643,0.0233745
1.64325,0.0332946
1.6435,0.0625436
1.64375,0.119915
1.644,0.0914685
1.64425,0.0713866
1.6445,0.132422
1.64475,0.0223813
1.645,0.0804788
1.64525,0.0223694
1.6455,0.0723278
1.64575,0.0739829
1.646,0.00197506
1.64625,0.0399534
1.6465,0.00488091
1.64675,-0.00388508
1.647,0.0078162
1.64725,-0.0423299
1.6475,0.0390362
1.64775,-0.00611324
1.648,-0.0568086
1.64825,-0.065799
1.6485,0.00949721
1.64875,-0.0275081
1.649,-0.0220967
1.64925,-0.0208382
1.6495,-0.0347831
1.64975,-0.0046523
1.65,-0.0107332
1.65025,-0.0154872
1.6505,0.0129318
1.65075,-0.0265813
1.651,-0.0194396
1.65125,0.0371439
1.6515,-0.0116874
1.65175,0.00267094
1.652,0.0170043
1.65225,0.0263809
1.6525,-0.0150416
1.65275,-0.0726965
1.653,-0.03785
1.65325,-0.0218504
1.6535,-0.0552209
1.65375,-0.0820116
1.654,-0.0312891
1.65425,-9.47E-02
1.6545,-0.022684
1.65475,-0.0295398
1.655,-0.0635257
1.65525,-0.0488266
1.6555,-0.111032
1.65575,-0.140949
1.656,-0.115302
1.65625,-0.0745381
1.6565,-0.0152044
1.65675,-0.0588594
1.657,-0.126162
1.65725,-0.0744253
1.6575,-0.107828
1.65775,-0.0401351
1.658,-0.0701889
1.65825,-0.0594547
1.6585,-0.0188758
1.65875,-0.00471788
1.659,-0.0267098
1.65925,0.00691044
1.6595,-0.0100329
1.65975,0.0375896
1.66,4.77E-02
1.66025,0.0137111
1.6605,0.0572101
1.66075,0.0427157
1.661,0.0510426
1.66125,0.0448251
1.6615,0.044009
1.66175,0.0196407
1.662,0.016225
1.66225,0.0340263
1.6625,0.041638
1.66275,-0.0212323
1.663,0.041812
1.66325,-0.00263364
1.6635,0.0100571
1.66375,0.0228215
1.664,-0.0562186
1.66425,0.0613828
1.6645,-0.00962825
1.66475,-0.00646887
1.665,0.00913527
1.66525,0.0457846
1.6655,0.00250307
1.66575,-0.0459672
1.666,-0.0249803
1.66625,0.0211571
1.6665,0.063479
1.66675,0.0121318
1.667,0.0355424
1.66725,0.0455131
1.6675,0.0777327
1.66775,0.0678207
1.668,0.083907
1.66825,0.0814257
1.6685,0.0379699
1.66875,0.0600531
1.669,0.0271471
1.66925,0.0424787
1.6695,0.0303689
1.66975,0.00634676
1.67,0.000869227
1.67025,-0.00527357
1.6705,-0.019075
1.67075,-0.0201939
1.671,-0.021365
1.67125,-0.0206911
1.6715,-0.073618
1.67175,-0.0632269
1.672,-0.073508
1.67225,-0.100427
1.6725,-0.0929313
1.67275,-0.0633558
1.673,-0.0822636
1.67325,-0.0576178
1.6735,-0.120707
1.67375,-0.124059
1.674,-0.0336538
1.67425,-0.132274
1.6745,-0.0857344
1.67475,-0.0852268
1.675,-0.0943373
1.67525,-0.0164761
1.6755,-0.00612198
1.67575,-0.000303333
1.676,0.0305237
1.67625,-0.0575608
1.6765,-0.0314973
1.67675,-0.0104967
1.677,0.00625715
1.67725,-0.00313628
1.6775,-0.0607778
1.67775,-0.000990953
1.678,0.0371694
1.67825,0.0169707
1.6785,0.0138281
1.67875,0.0101498
1.679,-0.00447072
1.67925,-0.0151387
1.6795,-0.0131102
1.67975,-0.0392147
1.68,-0.0279339
1.68025,-0.0468782
1.6805,-0.0477317
1.68075,-0.0291755
1.681,-0.0357284
1.68125,-0.0353192
1.6815,0.0074558
1.68175,-0.0156605
1.682,0.000594872
1.68225,0.0351514
1.6825,0.0141329
1.68275,0.0229224
1.683,0.020827
1.68325,0.00370531
1.6835,0.00965575
1.68375,0.0434674
1.684,0.0509268
1.68425,0.0801054
1.6845,0.128145
1.68475,0.143821
1.685,0.0958225
1.68525,0.072816
1.6855,0.00793637
1.68575,0.0934437
1.686,0.111352
1.68625,0.0167682
1.6865,0.0337988
1.68675,0.0698468
1.687,0.0314156
1.68725,0.0296753
1.6875,0.067979
1.68775,0.0556159
1.688,0.0320651
1.68825,-0.0344973
1.6885,-0.00654311
1.68875,-0.0289699
1.689,-0.00712956
1.68925,-0.0396601
1.6895,-0.00636529
1.68975,-0.0657979
1.69,-0.068728
1.69025,-0.0676663
1.6905,-0.0503477
1.69075,-0.0657953
1.691,-0.0491473
1.69125,-0.0421517
1.6915,-0.0208392
1.69175,-0.0140994
1.692,-0.0404199
1.69225,-0.0176017
1.6925,-0.0270206
1.69275,0.0225249
1.693,-0.023612
1.69325,0.0212589
1.6935,-0.0744708
1.69375,0.0477415
1.694,-0.026201
1.69425,0.00603706
1.6945,-0.0662027
1.69475,0.00125093
1.695,-0.0712877
1.69525,-0.0494812
1.6955,-0.0356862
1.69575,-0.065319
1.696,-0.0556862
1.69625,-0.0921
1.6965,-0.0454063
1.69675,-0.0306915
1.697,-0.0685797
1.69725,-0.0601664
1.6975,-0.0424089
1.69775,-0.0585294
1.698,-0.0560025
1.69825,-0.0777226
1.6985,-2.11E-02
1.69875,-0.0558738
1.699,-0.0281861
1.69925,-0.0521022
1.6995,-0.0283098
1.69975,-0.00336059
1.7,0.00139535
1.70025,0.00864934
1.7005,0.00939863
1.70075,0.0236364
1.701,0.0492659
1.70125,0.0737843
1.7015,0.0898243
1.70175,0.0166865
1.702,0.0624763
1.70225,0.0504208
1.7025,0.0463431
1.70275,0.0942282
1.703,0.0916487
1.70325,0.0740994
1.7035,0.0825789
1.70375,0.100549
1.704,0.0924005
1.70425,0.0645926
1.7045,0.0192165
1.70475,0.0456166
1.705,0.0103853
1.70525,0.0141751
1.7055,0.0327875
1.70575,0.0682245
1.706,0.0406383
1.70625,0.0686465
1.7065,0.0312423
1.70675,-0.0364827
1.707,0.00580081
1.70725,-0.0143803
1.7075,-0.00492966
1.70775,-0.0120764
1.708,0.0103007
1.70825,0.0218958
1.7085,0.0242263
1.70875,2.60E-02
1.709,0.0319989
1.70925,0.0299335
1.7095,0.0329988
1.70975,0.0685658
1.71,0.0316886
1.71025,-0.000333271
1.7105,0.0576457
1.71075,0.00602152
1.711,0.0235892
1.71125,0.0267186
1.7115,0.0338291
1.71175,-0.00409701
1.712,0.00211529
1.71225,-0.0442901
1.7125,-0.0314134
1.71275,-0.0470111
1.713,-0.0771569
1.71325,-0.118414
1.7135,-0.0494659
1.71375,-0.0361098
1.714,-0.104065
1.71425,-0.112311
1.7145,-0.0360928
1.71475,-8.97E-02
1.715,-0.0941476
1.71525,-0.0640555
1.7155,-0.0962032
1.71575,-0.108425
1.716,-0.0751874
1.71625,-0.0126979
1.7165,-0.0699223
1.71675,0.00242151
1.717,-0.0607658
1.71725,0.00445541
1.7175,0.00972979
1.71775,-0.000889284
1.718,0.0219357
1.71825,-0.0120314
1.7185,-0.00755906
1.71875,0.0457343
1.719,0.00373973
1.71925,0.0607722
1.7195,0.0497166
1.71975,0.0219975
1.72,0.0469037
1.72025,0.0337686
1.7205,0.0038286
1.72075,0.00943228
1.721,-0.00204729
1.72125,-0.00844133
1.7215,0.000174156
1.72175,0.035094
1.722,0.0133151
1.72225,-0.0168543
1.7225,7.88E-06
1.72275,-0.0221294
1.723,-0.00326411
1.72325,-0.00433068
1.7235,0.0453864
1.72375,0.0156384
1.724,0.0219496
1.72425,0.0185176
1.7245,0.0493763
1.72475,0.0577962
1.725,0.0831747
1.72525,0.0490998
1.7255,0.0160096
1.72575,0.0598515
1.726,0.0531461
1.72625,0.0653671
1.7265,0.0795192
1.72675,0.0354
1.727,0.0658897
1.72725,0.0410141
1.7275,0.0673799
1.72775,0.0874696
1.728,0.0415401
1.72825,0.0779732
1.7285,0.0456749
1.72875,0.0297897
1.729,0.0358248
1.72925,0.00368002
1.7295,0.00106585
1.72975,-0.0140101
1.73,-0.037432
1.73025,-0.0184299
1.7305,-0.0504243
1.73075,-0.0670494
1.731,-0.0109691
1.73125,-0.0697948
1.7315,-0.0521335
1.73175,-0.0473609
1.732,-0.0236285
1.73225,-0.0468229
1.7325,-0.0904983
1.73275,-0.0642711
1.733,-0.0381654
1.73325,-0.0481274
1.7335,-0.0452711
1.73375,-0.00549501
1.734,-0.0650822
1.73425,-0.061843
1.7345,-0.0266185
1.73475,-0.0573794
1.735,-0.0380744
1.73525,0.036469
1.7355,-0.0346041
1.73575,-0.0590036
1.736,-0.0355684
1.73625,0.0386791
1.7365,-0.0381573
1.73675,-0.0513376
1.737,-0.0208043
1.73725,0.00216719
1.7375,-0.0313527
1.73775,-0.0256542
1.738,-0.0440079
1.73825,-0.0252476
1.7385,-0.0255162
1.73875,-0.0721866
1.739,-0.0394377
1.73925,-0.0355685
1.7395,-0.0215809
1.73975,-0.00650573
1.74,-0.0583847
1.74025,-0.0426755
1.7405,-0.0314896
1.74075,0.00549589
1.741,-0.0091059
1.74125,0.0119285
1.7415,0.0168487
1.74175,0.00674532
1.742,0.0580665
1.74225,0.0437548
1.7425,0.0819612
1.74275,0.0458526
1.743,0.0828053
1.74325,0.0585186
1.7435,0.0786829
1.74375,0.09699
1.744,0.089019
1.74425,0.132586
1.7445,0.0729649
1.74475,0.049577
1.745,0.0773696
1.74525,0.084958
1.7455,0.0830062
1.74575,0.0774121
1.746,0.0381744
1.74625,0.00906293
1.7465,0.0691362
1.74675,3.72E-02
1.747,0.00942305
1.74725,-0.0304504
1.7475,-0.0592348
1.74775,0.0141469
1.748,0.024781
1.74825,-0.0280638
1.7485,-0.0418141
1.74875,-0.0349382
1.749,0.0138415
1.74925,-0.0112877
1.7495,-0.0175428
1.74975,0.000572547
1.75,0.00199241
1.75025,0.00598782
1.7505,-0.0070933
1.75075,0.0147085
1.751,-0.0128142
1.75125,0.0157902
1.7515,0.065575
1.75175,-0.00335295
1.752,-0.00430139
1.75225,-0.00714491
1.7525,0.0563004
1.75275,0.0496929
1.753,-0.0283333
1.75325,-0.0617433
1.7535,-0.0167802
1.75375,-0.0370703
1.754,-0.0474445
1.75425,-0.0780316
1.7545,-0.079227
1.75475,-0.0360797
1.755,-0.0993383
1.75525,-0.081048
1.7555,-0.146209
1.75575,-0.0389853
1.756,-0.0226692
1.75625,-0.0499788
1.7565,-0.0665706
1.75675,-0.0268561
1.757,-0.0348514
1.75725,-0.0395596
1.7575,-7.18E-02
1.75775,-0.0317874
1.758,-0.0287806
1.75825,-0.0396028
1.7585,0.000900078
1.75875,-0.0264815
1.759,-0.000503663
1.75925,0.00187934
1.7595,0.00984985
1.75975,0.0216216
1.76,0.0348582
1.76025,0.0616092
1.7605,0.0143686
1.76075,0.0200074
1.761,0.0717194
1.76125,0.0594831
1.7615,0.0122677
1.76175,0.0295755
1.762,0.0481902
1.76225,0.0202031
1.7625,0.0703919
1.76275,0.0268846
1.763,0.0649195
1.76325,0.0449152
1.7635,0.0708495
1.76375,0.000142519
1.764,-0.0630729
1.76425,-0.00400629
1.7645,0.00397456
1.76475,0.00241712
1.765,0.0047456
1.76525,0.00400218
1.7655,-0.0188338
1.76575,0.0340856
1.766,0.0721061
1.76625,-0.00955837
1.7665,0.00441949
1.76675,0.0212084
1.767,0.0594687
1.76725,0.0996825
1.7675,0.0306111
1.76775,0.057609
1.768,0.088916
1.76825,0.0170694
1.7685,0.0515745
1.76875,0.0291202
1.769,0.0738088
1.76925,0.0442374
1.7695,0.0542131
1.76975,0.052602
1.77,0.0235182
1.77025,0.00513564
1.7705,0.00537065
1.77075,-0.000983876
1.771,-0.0337117
1.77125,-0.0322183
1.7715,-0.0418355
1.77175,-0.0711349
1.772,-0.0602949
1.77225,-0.0217025
1.7725,-0.0863835
1.77275,-0.0447393
1.773,-0.116394
1.77325,-0.112438
1.7735,-0.116522
1.77375,-0.14576
1.774,-0.102341
1.77425,-0.0765847
1.7745,-0.0733385
1.77475,-0.0365998
1.775,-0.00563516
1.77525,-0.0836483
1.7755,0.00611829
1.77575,-0.0144036
1.776,-0.0471285
1.77625,-0.025816
1.7765,-0.0286381
1.77675,0.00559106
1.777,0.0273408
1.77725,-0.00797365
1.7775,0.00408373
1.77775,-0.0314033
1.778,0.0380276
1.77825,-0.0167295
1.7785,-0.017823
1.77875,-0.0358821
1.779,-0.00218744
1.77925,-0.0119595
1.7795,-0.0159133
1.77975,-0.0166549
1.78,-0.0308399
1.78025,-0.0407959
1.7805,-0.0141407
1.78075,-0.0403332
1.781,-0.0169398
1.78125,-0.0491272
1.7815,0.0139406
1.78175,-0.0284245
1.782,-0.0234675
1.78225,-0.024977
1.7825,0.00337347
1.78275,0.0604375
1.783,-0.00115285
1.78325,0.0789049
1.7835,0.0919079
1.78375,0.0165463
1.784,0.118213
1.78425,0.0895377
1.7845,0.100158
1.78475,0.0314242
1.785,0.0712237
1.78525,0.115337
1.7855,0.0763493
1.78575,0.0192516
1.786,0.0918584
1.78625,0.106952
1.7865,0.112528
1.78675,0.0985488
1.787,0.0178618
1.78725,0.0251166
1.7875,0.0606627
1.78775,-0.0119656
1.788,0.00273943
1.78825,-0.0227454
1.7885,-0.0111032
1.78875,0.0177474
1.789,-0.0378391
1.78925,0.00849043
1.7895,-0.0431766
1.78975,-0.0633198
1.79,-0.0607437
1.79025,-0.00758155
1.7905,-0.0045403
1.79075,-0.0280065
1.791,-0.0359248
1.79125,-0.0164625
1.7915,-0.0231908
1.79175,-0.0304877
1.792,-0.00235111
1.79225,0.0155945
1.7925,-0.0114738
1.79275,-0.0553886
1.793,0.0462756
1.79325,-0.00270706
1.7935,0.0383672
1.79375,-0.0601656
1.794,-0.0125587
1.79425,0.00948375
1.7945,0.0207643
1.79475,-0.0178168
1.795,-0.00862614
1.79525,0.0204004
1.7955,0.00109449
1.79575,-0.077327
1.796,-0.0604061
1.79625,-0.104181
1.7965,-0.109675
1.79675,-0.0913978
1.797,-0.0785441
1.79725,-0.0666558
1.7975,-0.0540781
1.79775,-0.0775877
1.798,-0.0480598
1.79825,-0.0940435
1.7985,-0.0920823
1.79875,-0.0508592
1.799,-0.0427128
1.79925,-0.0335164
1.7995,-0.0231739
1.79975,-0.0171005
1.8,-0.000685857
1.80025,0.0120327
1.8005,0.0205425
1.80075,0.0313653
1.801,0.062461
1.80125,0.0355624
1.8015,0.0502151
1.80175,0.0980889
1.802,0.0212144
1.80225,0.0441827
1.8025,0.103715
1.80275,0.0164488
1.803,0.0749262
1.80325,0.0437544
1.8035,0.0443014
1.80375,0.0356308
1.804,0.0222979
1.80425,0.0942334
1.8045,0.0450459
1.80475,0.059269
1.805,0.0585909
1.80525,0.0111243
1.8055,-0.0302017
1.80575,-0.0582926
1.806,5.52E-03
1.80625,-0.0185282
1.8065,-0.0482589
1.80675,-0.0273438
1.807,-0.00876303
1.80725,0.0188776
1.8075,0.034954
1.80775,8.28E-03
1.808,0.0414915
1.80825,0.0470161
1.8085,0.00607705
1.80875,0.0111631
1.809,0.0408097
1.80925,0.0418904
1.8095,0.0158594
1.80975,0.0482914
1.81,0.0682834
1.81025,0.0704012
1.8105,3.43E-02
1.81075,0.024274
1.811,-0.0140518
1.81125,0.0181013
1.8115,-0.00862349
1.81175,0.0216525
1.812,-0.0320943
1.81225,-0.0540099
1.8125,-0.0603294
1.81275,-0.0675898
1.813,-0.038145
1.81325,-0.0780202
1.8135,-0.061696
1.81375,-0.0563481
1.814,-0.0815238
1.81425,-0.0836888
1.8145,-0.139995
1.81475,-0.0891661
1.815,-0.120352
1.81525,-0.0678119
1.8155,-0.0630895
1.81575,-0.0293004
1.816,-0.0614277
1.81625,-0.0672847
1.8165,-0.0514555
1.81675,-0.0485988
1.817,-0.0160408
1.81725,-0.0473194
1.8175,0.0140877
1.81775,-0.0311605
1.818,-0.0400113
1.81825,0.0397547
1.8185,0.00332163
1.81875,0.0536048
1.819,0.0369485
1.81925,-0.0027316
1.8195,0.018866
1.81975,0.0126832
1.82,0.0407065
1.82025,0.0207511
1.8205,0.0190312
1.82075,0.0218009
1.821,0.0061448
1.82125,-0.000915402
1.8215,0.00392432
1.82175,-0.00267036
1.822,-0.0220423
1.82225,-0.0208385
1.8225,0.0318342
1.82275,-0.0223357
1.823,0.0586637
1.82325,0.0365674
1.8235,0.0366718
1.82375,0.0401494
1.824,-0.0303469
1.82425,0.0347968
1.8245,0.0541934
1.82475,0.0371391
1.825,0.083859
1.82525,0.0130784
1.8255,0.0147497
1.82575,0.0556997
1.826,0.0920904
1.82625,0.0506531
1.8265,0.0804041
1.82675,0.0558973
1.827,0.0633506
1.82725,0.0584329
1.8275,0.0593111
1.82775,0.0128737
1.828,0.077332
1.82825,0.0704855
1.8285,0.0355244
1.82875,0.0275158
1.829,0.0285467
1.82925,-0.000848559
1.8295,-0.000738801
1.82975,-0.00122918
1.83,-0.0365039
1.83025,-0.0127379
1.8305,-0.0166052
1.83075,-0.0528179
1.831,-0.0536269
1.83125,-0.0729649
1.8315,-5.78E-02
1.83175,-0.0799431
1.832,-0.0521773
1.83225,-0.0344512
1.8325,-0.0694668
1.83275,-0.0597133
1.833,-0.0956034
1.83325,-0.0170054
1.8335,-0.0313564
1.83375,-0.0247028
1.834,-0.00113723
1.83425,-0.0828702
1.8345,-0.0820413
1.83475,0.014859
1.835,-0.0164667
1.83525,-0.00430604
1.8355,-0.0519939
1.83575,0.00171229
1.836,-0.0386894
1.83625,-0.00540327
1.8365,0.0351548
1.83675,-0.0479213
1.837,-0.00265922
1.83725,-0.0261669
1.8375,-0.0500964
1.83775,-0.0115864
1.838,-0.0450615
1.83825,-0.0381743
1.8385,-0.0425504
1.83875,-0.040235
1.839,-0.0486843
1.83925,-0.0148032
1.8395,-0.0494468
1.83975,-0.0619359
1.84,-0.0099203
1.84025,-0.0195222
1.8405,0.00425527
1.84075,-0.0173667
1.841,-0.0248752
1.84125,0.0234438
1.8415,0.0294172
1.84175,0.00720656
1.842,0.0045504
1.84225,0.0767917
1.8425,0.0462021
1.84275,0.0912484
1.843,0.107418
1.84325,0.129736
1.8435,0.0500086
1.84375,0.0811711
1.844,0.0723771
1.84425,0.0772955
1.8445,0.0339806
1.84475,0.114762
1.845,0.0773375
1.84525,0.0940752
1.8455,0.102597
1.84575,0.0209401
1.846,0.0223602
1.84625,0.0490908
1.8465,0.0195632
1.84675,0.0627004
1.847,0.0749127
1.84725,-0.000371532
1.8475,-0.0287829
1.84775,0.0601277
1.848,0.0374924
1.84825,-0.0343122
1.8485,-0.0579991
1.84875,-0.026663
1.849,0.0044529
1.84925,0.0190898
1.8495,-0.02092
1.84975,0.00228976
1.85,-0.000116467
1.85025,0.00922474
1.8505,-0.00699328
1.85075,0.00847347
1.851,0.0264478
1.85125,0.0191004
1.8515,0.0293286
1.85175,0.0209745
1.852,0.0310832
1.85225,0.00126268
1.8525,-0.0236562
1.85275,0.0436372
1.853,-0.0177077
1.85325,-0.0517903
1.8535,-0.0297855
1.85375,-0.0702779
1.854,-0.0847001
1.85425,-0.0690842
1.8545,-0.10101
1.85475,-0.0933959
1.855,-0.119331
1.85525,-0.122412
1.8555,-0.0721235
1.85575,-0.125129
1.856,-0.0184342
1.85625,-0.105142
1.8565,-0.0729929
1.85675,-0.129001
1.857,-0.0601075
1.85725,-0.10407
1.8575,-0.0312626
1.85775,-0.0277033
1.858,-0.0529944
1.85825,-0.0352214
1.8585,-0.0232327
1.85875,-0.0147918
1.859,-0.0216857
1.85925,-0.00722715
1.8595,0.0365592
1.85975,0.0219891
1.86,0.0651426
1.86025,0.0756323
1.8605,0.0516226
1.86075,0.0591198
1.861,0.0499377
1.86125,0.0699606
1.8615,0.0285377
1.86175,0.0214461
1.862,0.0425039
1.86225,0.040286
1.8625,0.00614966
1.86275,0.038844
1.863,0.0383816
1.86325,0.0136644
1.8635,-0.00727838
1.86375,0.00531702
1.864,0.0208866
1.86425,0.0261552
1.8645,-0.0460967
1.86475,-0.0282915
1.865,0.0301971
1.86525,0.00782869
1.8655,-0.001231
1.86575,0.0611317
1.866,0.0228216
1.86625,0.0463149
1.8665,0.0726301
1.86675,0.0504204
1.867,0.049982
1.86725,0.074176
1.8675,0.0721032
1.86775,0.00991398
1.868,0.0831445
1.86825,0.0859213
1.8685,0.0902786
1.86875,0.087087
1.869,0.0691233
1.86925,0.034623
1.8695,0.0739604
1.86975,0.0233344
1.87,0.0291569
1.87025,-0.000215633
1.8705,-0.000506219
1.87075,-0.00689654
1.871,-0.0305313
1.87125,-0.0490705
1.8715,-0.0544136
1.87175,-0.0920356
1.872,-0.0860208
1.87225,-0.0985259
1.8725,-0.141232
1.87275,-0.0682143
1.873,-0.109744
1.87325,-0.0742733
1.8735,-0.0596939
1.87375,-0.00514034
1.874,-0.0995338
1.87425,-0.0643288
1.8745,-0.0553833
1.87475,-0.0712116
1.875,-0.0387947
1.87525,-0.0320674
1.8755,0.0172996
1.87575,-0.0603561
1.876,-0.0880697
1.87625,-0.0567844
1.8765,-0.0611899
1.87675,-0.0247024
1.877,0.0431926
1.87725,0.0417747
1.8775,0.0306608
1.87775,0.0283256
1.878,-0.0451841
1.87825,-0.0290074
1.8785,0.0069636
1.87875,-0.035112
1.879,-0.00374993
1.87925,-0.0086108
1.8795,-0.0121205
1.87975,-0.0205229
1.88,-0.0233973
1.88025,-0.0333117
1.8805,-0.00462901
1.88075,-0.0172603
1.881,-0.0153521
1.88125,-0.0172497
1.8815,-0.0542966
1.88175,0.024542
1.882,-0.0174121
1.88225,-0.0362938
1.8825,0.0535639
1.88275,0.0467076
1.883,-0.00256385
1.88325,0.0106154
1.8835,0.0370798
1.88375,0.0750827
1.884,0.0792706
1.88425,0.0361132
1.8845,0.144795
1.88475,0.123485
1.885,0.0812415
1.88525,0.0876788
1.8855,0.0805304
1.88575,0.111044
1.886,0.108096
1.88625,0.0718005
1.8865,0.0878581
1.88675,0.0990554
1.887,0.0677462
1.88725,0.037469
1.8875,0.0221654
1.88775,0.0354065
1.888,-0.0151567
1.88825,0.0153134
1.8885,-0.0174645
1.88875,0.0195449
1.889,-0.0283026
1.88925,-0.0608785
1.8895,-0.0445284
1.88975,-0.0162156
1.89,-0.0706808
1.89025,-0.039406
1.8905,-0.0538795
1.89075,-0.0590961
1.891,-0.03738
1.89125,-0.00908637
1.8915,-0.0272093
1.89175,-0.0311414
1.892,-0.0222435
1.89225,-0.0260827
1.8925,-0.0286729
1.89275,-0.000370855
1.893,0.0114143
1.89325,-0.0122393
1.8935,0.0172281
1.89375,0.00307804
1.894,-0.0253284
1.89425,0.00685116
1.8945,0.00284962
1.89475,-0.00166913
1.895,-0.00586109
1.89525,0.0104611
1.8955,-0.0350456
1.89575,-0.00810899
1.896,-0.0750776
1.89625,-0.0573739
1.8965,-0.0335822
1.89675,-0.0467396
1.897,-0.091972
1.89725,-0.0734509
1.8975,-0.0667886
1.89775,-0.0762089
1.898,-0.113196
1.89825,-0.0910604
1.8985,-0.0524895
1.89875,-0.0609266
1.899,-0.0300338
1.89925,-0.0464059
1.8995,-0.0283614
1.89975,-0.0103606
1.9,9.36E-05
1.90025,0.0170706
1.9005,0.00438162
1.90075,0.0405677
1.901,0.0208176
1.90125,0.0558225
1.9015,0.0568059
1.90175,0.109807
1.902,0.0450689
1.90225,0.0695882
1.9025,0.0919645
1.90275,0.057076
1.903,0.050134
1.90325,0.0761782
1.9035,0.0288104
1.90375,9.62E-02
1.904,0.0888791
1.90425,0.0853078
1.9045,0.0501123
1.90475,0.0112166
1.905,0.0531168
1.90525,-0.0457893
1.9055,0.0425768
1.90575,0.00985811
1.906,0.0326759
1.90625,0.0384431
1.9065,0.0147712
1.90675,0.0202779
1.907,-0.0493031
1.90725,0.0353533
1.9075,-0.0193035
1.90775,0.0305967
1.908,0.0331377
1.90825,0.0268818
1.9085,0.0419816
1.90875,0.0217391
1.909,0.0224514
1.90925,0.0476823
1.9095,0.0395236
1.90975,0.0682314
1.91,0.0521745
1.91025,0.0494555
1.9105,0.044372
1.91075,0.0456765
1.911,0.0387983
1.91125,-0.00572547
1.9115,0.0245881
1.91175,0.0161103
1.912,-0.0296587
1.91225,-0.0116488
1.9125,-0.0425202
1.91275,-0.0134623
1.913,-0.0686751
1.91325,-0.0390341
1.9135,-0.0961477
1.91375,-0.10279
1.914,-0.0902149
1.91425,-0.115575
1.9145,-0.0915652
1.91475,-0.0864572
1.915,-0.00383128
1.91525,-0.101506
1.9155,-0.0448485
1.91575,-0.0189442
1.916,-0.0671037
1.91625,-0.095979
1.9165,-0.0149483
1.91675,-0.0414186
1.917,0.0163311
1.91725,-0.0388648
1.9175,-0.0263594
1.91775,0.0438167
1.918,-0.0180172
1.91825,-0.02409
1.9185,0.00126136
1.91875,-0.00859444
1.919,0.0608687
1.91925,-4.75E-05
1.9195,0.0402732
1.91975,0.00981404
1.92,0.00810026
1.92025,0.00614116
1.9205,0.0229289
1.92075,0.00302527
1.921,0.0148845
1.92125,-0.0109456
1.9215,0.0244155
1.92175,0.0136641
1.922,-0.0108127
1.92225,-0.00238869
1.9225,-0.00361497
1.92275,0.00314726
1.923,0.0506415
1.92325,0.0138597
1.9235,-0.0201164
1.92375,-0.0198238
1.924,0.0367548
1.92425,0.0450687
1.9245,0.056097
1.92475,0.00895083
1.925,0.0139901
1.92525,0.0677861
1.9255,0.0437191
1.92575,0.0705843
1.926,0.0206863
1.92625,0.0223168
1.9265,0.0486447
1.92675,0.0545782
1.927,0.0716839
1.92725,0.0843998
1.9275,0.0161062
1.92775,0.0346569
1.928,0.0812421
1.92825,0.06502
1.9285,0.0512079
1.92875,0.0417298
1.929,0.0155531
1.92925,0.0197156
1.9295,0.00167621
1.92975,-0.00666235
1.93,-0.0122469
1.93025,-0.0560576
1.9305,-0.0227473
1.93075,-0.076813
1.931,-0.0875408
1.93125,-0.0251049
1.9315,-0.092944
1.93175,-0.10663
1.932,-0.0563267
1.93225,-0.0417056
1.9325,-0.023716
1.93275,-0.0630573
1.933,-0.0164823
1.93325,-0.044922
1.9335,-0.0109137
1.93375,-0.0598823
1.934,0.00109413
1.93425,-0.0341503
1.9345,-0.00293197
1.93475,-0.0753039
1.935,-0.00640388
1.93525,-0.00730456
1.9355,-0.0543346
1.93575,0.0123208
1.936,0.0257616
1.93625,-0.0586977
1.9365,0.0127157
1.93675,-0.0523529
1.937,-0.0221748
1.93725,-0.0268112
1.9375,-0.00554947
1.93775,-0.0647627
1.938,-0.0794324
1.93825,-0.0803899
1.9385,-0.0263269
1.93875,-0.0651444
1.939,-0.0493528
1.93925,-0.0861419
1.9395,-0.0271184
1.93975,-0.067732
1.94,-0.0405105
1.94025,-0.0148741
1.9405,-0.00873099
1.94075,-0.0276942
1.941,0.0231298
1.94125,-0.00394643
1.9415,0.0320955
1.94175,0.0144767
1.942,0.0291635
1.94225,0.0705922
1.9425,0.0335745
1.94275,0.0412088
1.943,7.18E-02
1.94325,0.126141
1.9435,0.0721378
1.94375,0.118683
1.944,0.163305
1.94425,0.0531545
1.9445,0.039544
1.94475,0.0269188
1.945,0.0251914
1.94525,0.0387459
1.9455,0.0450506
1.94575,0.0591598
1.946,0.02106
1.94625,0.0289339
1.9465,-0.0164222
1.94675,0.00763693
1.947,-0.0193585
1.94725,0.0395555
1.9475,-0.0216324
1.94775,0.0228724
1.948,-0.0330038
1.94825,-0.0452311
1.9485,-0.0393045
1.94875,-0.0315627
1.949,0.0205442
1.94925,-0.0131828
1.9495,-0.00709734
1.94975,-0.000635721
1.95,-1.33E-05
1.95025,0.00114672
1.9505,-0.00369999
1.95075,0.00743515
1.951,0.00441985
1.95125,-0.00728928
1.9515,-0.0308699
1.95175,0.0219454
1.952,0.00687037
1.95225,0.0120038
1.9525,-0.00989274
1.95275,0.0115272
1.953,0.0220725
1.95325,-0.051639
1.9535,0.000505296
1.95375,0.00810298
1.954,-0.0768176
1.95425,-0.0189995
1.9545,-5.11E-02
1.95475,-0.0315948
1.955,-0.0489519
1.95525,-0.0701609
1.9555,-0.00386587
1.95575,-0.098161
1.956,-0.0193592
1.95625,-0.114466
1.9565,-0.0787903
1.95675,-0.102221
1.957,-0.0704349
1.95725,-0.030411
1.9575,-0.0982447
1.95775,-0.0715013
1.958,-0.061677
1.95825,-0.00751221
1.9585,-0.00579725
1.95875,-0.0263733
1.959,-0.000394232
1.95925,-0.00679239
1.9595,0.0465926
1.95975,-0.00133114
1.96,0.00511964
1.96025,0.0194196
1.9605,0.0579357
1.96075,0.00943916
1.961,0.0264425
1.96125,0.0449713
1.9615,0.0307854
1.96175,0.0534799
1.962,0.0379563
1.96225,0.0365904
1.9625,0.0425155
1.96275,0.0275407
1.963,0.029153
1.96325,0.0267854
1.9635,0.0149306
1.96375,0.0115104
1.964,-0.0157858
1.96425,0.0352377
1.9645,0.0411658
1.96475,0.0403873
1.965,0.051637
1.96525,0.050044
1.9655,0.0841026
1.96575,0.0457826
1.966,0.0709993
1.96625,0.0516329
1.9665,0.0565581
1.96675,0.0599135
1.967,0.0882566
1.96725,0.0509652
1.9675,0.0213394
1.96775,0.0892306
1.968,0.0647162
1.96825,0.0274093
1.9685,0.0503694
1.96875,0.057318
1.969,0.0215035
1.96925,0.0235364
1.9695,0.0449744
1.96975,0.0605271
1.97,0.0347762
1.97025,0.0174552
1.9705,0.0170438
1.97075,-0.0142133
1.971,-0.00685615
1.97125,-0.0240355
1.9715,-0.0422473
1.97175,-0.0627862
1.972,-0.0163511
1.97225,-2.04E-02
1.9725,-0.0243206
1.97275,-0.069846
1.973,-0.0574073
1.97325,-0.0711905
1.9735,-0.122127
1.97375,-0.0776005
1.974,-0.0652983
1.97425,-0.102966
1.9745,-0.0430405
1.97475,-0.0626202
1.975,-0.0851188
1.97525,-0.0780248
1.9755,-0.0471327
1.97575,0.0202278
1.976,-0.0610743
1.97625,0.0330577
1.9765,-0.0367794
1.97675,0.0492489
1.977,-0.0124463
1.97725,-0.0133115
1.9775,-0.0179723
1.97775,0.0522889
1.978,-0.0108069
1.97825,-0.00148356
1.9785,0.0311688
1.97875,0.00966118
1.979,0.00115025
1.97925,-0.00940726
1.9795,-0.0157782
1.97975,-0.0106202
1.98,-0.000959398
1.98025,-0.0106373
1.9805,-0.0473043
1.98075,-0.0217188
1.981,0.0104105
1.98125,0.00351487
1.9815,-0.00331107
1.98175,-0.00833357
1.982,0.0460837
1.98225,0.00840901
1.9825,0.0600166
1.98275,0.0304911
1.983,0.0707049
1.98325,0.070612
1.9835,0.0404479
1.98375,0.0779144
1.984,0.0773025
1.98425,0.0549957
1.9845,0.101468
1.98475,0.169405
1.985,0.0833831
1.98525,0.0401247
1.9855,0.06453
1.98575,0.0951148
1.986,0.0259836
1.98625,0.0249458
1.9865,0.0551178
1.98675,0.109886
1.987,0.0749294
1.98725,0.0702575
1.9875,0.0583167
1.98775,0.0488846
1.988,0.026899
1.98825,0.0164293
1.9885,0.0152924
1.98875,0.0190332
1.989,0.0257223
1.98925,0.00181998
1.9895,-0.0287008
1.98975,-0.0126431
1.99,-0.0247731
1.99025,-0.00741339
1.9905,-0.0516477
1.99075,-0.0293308
1.991,-0.0132435
1.99125,-0.0233655
1.9915,-0.0160461
1.99175,0.00932894
1.992,0.00212516
1.99225,-0.00876073
1.9925,-0.0140081
1.99275,0.00935157
1.993,-0.0366956
1.99325,0.0138196
1.9935,0.0298022
1.99375,0.0117087
1.994,-0.00929009
1.99425,0.0064832
1.9945,-0.0209282
1.99475,-0.0060234
1.995,0.0130393
1.99525,-0.0718049
1.9955,0.00851728
1.99575,-0.0460838
1.996,-0.0669399
1.99625,-0.0735415
1.9965,-0.0300926
1.99675,0.000900266
1.997,-0.0281613
1.99725,-0.0986296
1.9975,-0.0354619
1.99775,-0.0613898
1.998,-0.00272759
1.99825,-0.0215153
1.9985,-0.0736021
1.99875,-0.0506967
1.999,-0.0136441
1.99925,-0.0222268
1.9995,0.00960152
