Time (s),Channel 1 (V)
0,0.0266701
0.00025,0.0388426
0.0005,0.0470154
0.00075,0.0387019
0.001,0.0600763
0.00125,0.0419213
0.0015,0.107631
0.00175,0.0783847
0.002,0.0470586
0.00225,0.110874
0.0025,0.119416
0.00275,0.100102
0.003,0.0947323
0.00325,0.122272
0.0035,0.071988
0.00375,0.134055
0.004,0.0707837
0.00425,0.0526581
0.0045,0.0357344
0.00475,0.0756275
0.005,0.0540604
0.00525,0.0712191
0.0055,-0.00261376
0.00575,0.00644464
0.006,0.0755813
0.00625,0.0257144
0.0065,0.00960674
0.00675,0.046568
0.007,0.0448268
0.00725,0.035075
0.0075,0.00794195
0.00775,0.0346165
0.008,0.0251369
0.00825,0.0275261
0.0085,0.0245163
0.00875,0.0204088
0.009,0.0459175
0.00925,0.078562
0.0095,0.0835744
0.00975,0.0119871
0.01,0.0574726
0.01025,-0.0109685
0.0105,0.022975
0.01075,0.0346235
0.011,-0.00332708
0.01125,0.0104426
0.0115,0.0636702
0.01175,-0.0312486
0.012,0.00422369
0.01225,0.00424596
0.0125,-0.0104691
0.01275,0.00833904
0.013,0.0243372
0.01325,0.00976267
0.0135,0.0253191
0.01375,0.0418585
0.014,-0.0174268
0.01425,0.00673974
0.0145,-0.0180429
0.01475,0.0102874
0.015,0.00104158
0.01525,0.0508101
0.0155,0.0265567
0.01575,0.0329935
0.016,0.0634167
0.01625,0.0775459
0.0165,0.0572477
0.01675,0.0997209
0.017,0.109856
0.01725,0.0985792
0.0175,0.0751093
0.01775,0.163572
0.018,0.16836
0.01825,0.212807
0.0185,0.14632
0.01875,0.161069
0.019,0.142369
0.01925,0.117942
0.0195,0.116662
0.01975,0.147429
0.02,0.167819
0.02025,0.169951
0.0205,0.149386
0.02075,0.10574
0.021,0.0774995
0.02125,0.126435
0.0215,0.0832676
0.02175,0.0822826
0.022,0.0303314
0.02225,0.0456867
0.0225,0.0833399
0.02275,0.0741369
0.023,0.0366278
0.02325,0.0316981
0.0235,0.0493371
0.02375,0.0127823
0.024,0.037424
0.02425,0.0690792
0.0245,0.0119273
0.02475,0.0294153
0.025,0.0437029
0.02525,0.0368131
0.0255,0.0254925
0.02575,0.0157368
0.026,0.0125396
0.02625,0.104402
0.0265,0.0603309
0.02675,0.0726009
0.027,0.141951
0.02725,0.135633
0.0275,0.136577
0.02775,0.120086
0.028,0.0772155
0.02825,0.102223
0.0285,0.119412
0.02875,0.0530493
0.029,0.0741733
0.02925,0.0376754
0.0295,0.0623343
0.02975,0.0742398
0.03,0.0515093
0.03025,0.066029
0.0305,0.0785027
0.03075,0.0366043
0.031,0.0739543
0.03125,0.0820204
0.0315,0.0386928
0.03175,0.0477208
0.032,0.122592
0.03225,0.0807258
0.0325,0.0764505
0.03275,0.139969
0.033,0.149454
0.03325,0.138161
0.0335,0.123991
0.03375,0.187354
0.034,0.173051
0.03425,0.181604
0.0345,0.229039
0.03475,0.168878
0.035,0.207193
0.03525,0.216224
0.0355,0.226964
0.03575,0.174533
0.036,0.172318
0.03625,0.164783
0.0365,0.148816
0.03675,0.167961
0.037,0.171611
0.03725,0.149703
0.0375,0.144589
0.03775,0.150205
0.038,0.131509
0.03825,0.106682
0.0385,0.104264
0.03875,0.11477
0.039,0.0698919
0.03925,0.0695628
0.0395,0.0560773
0.03975,0.0850309
0.04,0.102302
0.04025,0.119735
0.0405,0.0462942
0.04075,0.0913239
0.041,0.0712983
0.04125,0.0819581
0.0415,0.0541485
0.04175,0.100081
0.042,0.0742188
0.04225,0.171623
0.0425,0.135815
0.04275,0.0896527
0.043,0.153112
0.04325,0.14111
0.0435,0.162388
0.04375,0.134584
0.044,0.138127
0.04425,0.144777
0.0445,0.174517
0.04475,0.173093
0.045,0.136444
0.04525,0.137854
0.0455,0.160252
0.04575,0.159603
0.046,0.158227
0.04625,0.169739
0.0465,0.160546
0.04675,0.149026
0.047,0.154617
0.04725,0.146683
0.0475,0.123308
0.04775,0.196271
0.048,0.11304
0.04825,0.248449
0.0485,0.190521
0.04875,0.171066
0.049,0.190017
0.04925,0.198102
0.0495,0.266163
0.04975,0.252367
0.05,0.273693
0.05025,0.268192
0.0505,0.305238
0.05075,0.25554
0.051,0.285957
0.05125,0.244502
0.0515,0.217274
0.05175,0.26698
0.052,0.278537
0.05225,0.232036
0.0525,0.309438
0.05275,0.235455
0.053,0.288118
0.05325,0.254171
0.0535,0.240324
0.05375,0.216387
0.054,0.21458
0.05425,0.203672
0.0545,0.193773
0.05475,0.20985
0.055,0.201113
0.05525,0.176521
0.0555,0.206539
0.05575,0.151928
0.056,0.156712
0.05625,0.0935403
0.0565,0.183036
0.05675,0.192086
0.057,0.103009
0.05725,0.17686
0.0575,0.129105
0.05775,0.195842
0.058,0.205345
0.05825,0.170892
0.0585,0.170096
0.05875,0.23502
0.059,0.169657
0.05925,0.19672
0.0595,0.231669
0.05975,0.247773
0.06,0.23274
0.06025,0.246481
0.0605,0.292319
0.06075,0.275138
0.061,0.306134
0.06125,0.298075
0.0615,0.303503
0.06175,0.293154
0.062,0.270806
0.06225,0.28121
0.0625,0.295558
0.06275,0.257357
0.063,0.280376
0.06325,0.27632
0.0635,0.277595
0.06375,0.287712
0.064,0.32017
0.06425,0.305692
0.0645,0.2691
0.06475,0.289717
0.065,0.223173
0.06525,0.30653
0.0655,0.257302
0.06575,0.321591
0.066,0.307838
0.06625,0.333237
0.0665,0.343798
0.06675,0.302639
0.067,0.358236
0.06725,0.338114
0.0675,0.31736
0.06775,0.400075
0.068,0.349675
0.06825,0.36786
0.0685,0.326201
0.06875,0.323478
0.069,0.315976
0.06925,0.326558
0.0695,0.346789
0.06975,0.345099
0.07,0.340653
0.07025,0.312103
0.0705,0.286956
0.07075,0.264615
0.071,0.299713
0.07125,0.259347
0.0715,0.236724
0.07175,0.270671
0.072,0.251437
0.07225,0.284488
0.0725,0.223908
0.07275,0.202398
0.073,0.176871
0.07325,0.237153
0.0735,0.305711
0.07375,0.233963
0.074,0.242554
0.07425,0.282304
0.0745,0.289982
0.07475,0.287434
0.075,0.305756
0.07525,0.304626
0.0755,0.337202
0.07575,0.335655
0.076,0.352981
0.07625,0.391213
0.0765,0.400285
0.07675,0.418522
0.077,0.375327
0.07725,0.419338
0.0775,0.429517
0.07775,0.398594
0.078,0.393687
0.07825,0.395081
0.0785,0.429522
0.07875,0.398104
0.079,0.386893
0.07925,0.440058
0.0795,0.41462
0.07975,0.406707
0.08,0.403926
0.08025,0.376612
0.0805,0.398804
0.08075,0.401411
0.081,0.416519
0.08125,0.359972
0.0815,0.40379
0.08175,0.40123
0.082,0.433706
0.08225,0.402904
0.0825,0.410776
0.08275,0.382472
0.083,0.4149
0.08325,0.4572
0.0835,0.435987
0.08375,0.415914
0.084,0.422203
0.08425,0.44853
0.0845,0.423837
0.08475,0.447178
0.085,0.435728
0.08525,0.444068
0.0855,0.452078
0.08575,0.444378
0.086,0.415128
0.08625,0.387327
0.0865,0.386954
0.08675,0.428281
0.087,0.42761
0.08725,0.40818
0.0875,0.412242
0.08775,0.368815
0.088,0.408959
0.08825,0.406474
0.0885,0.383736
0.08875,0.320574
0.089,0.430234
0.08925,0.437071
0.0895,0.434509
0.08975,0.370057
0.09,0.375298
0.09025,0.330739
0.0905,0.397081
0.09075,0.406547
0.091,0.399277
0.09125,0.428224
0.0915,0.452371
0.09175,0.449529
0.092,0.463746
0.09225,0.471565
0.0925,0.504824
0.09275,0.521532
0.093,0.524084
0.09325,0.57306
0.0935,0.515141
0.09375,0.580842
0.094,0.556293
0.09425,0.512344
0.0945,0.59271
0.09475,0.617687
0.095,0.552017
0.09525,0.567767
0.0955,0.57342
0.09575,0.510462
0.096,0.526466
0.09625,0.554988
0.0965,0.545643
0.09675,0.577558
0.097,0.498889
0.09725,0.488877
0.0975,0.50081
0.09775,0.489823
0.098,0.550228
0.09825,0.525955
0.0985,0.502581
0.09875,0.517117
0.099,0.527422
0.09925,0.520921
0.0995,0.512497
0.09975,0.517366
0.1,0.527201
0.10025,0.531357
0.1005,0.52614
0.10075,0.544438
0.101,0.541413
0.10125,0.584756
0.1015,0.571321
0.10175,0.560298
0.102,0.590114
0.10225,0.511375
0.1025,0.539113
0.10275,0.555593
0.103,0.552274
0.10325,0.554693
0.1035,0.537972
0.10375,0.503853
0.104,0.46066
0.10425,0.54334
0.1045,0.471187
0.10475,0.487193
0.105,0.430368
0.10525,0.509972
0.1055,0.526562
0.10575,0.484044
0.106,0.44876
0.10625,0.50384
0.1065,0.523032
0.10675,0.546257
0.107,0.527262
0.10725,0.520231
0.1075,0.556948
0.10775,0.57183
0.108,0.578031
0.10825,0.588918
0.1085,0.588455
0.10875,0.621267
0.109,0.623876
0.10925,0.622976
0.1095,0.622039
0.10975,0.659459
0.11,0.664209
0.11025,0.68277
0.1105,0.70962
0.11075,0.706859
0.111,0.63323
0.11125,0.670965
0.1115,0.710666
0.11175,0.667489
0.112,0.673217
0.11225,0.697458
0.1125,0.624679
0.11275,0.617982
0.113,0.682187
0.11325,0.645747
0.1135,0.630925
0.11375,0.623541
0.114,0.609153
0.11425,0.610727
0.1145,0.588395
0.11475,0.599116
0.115,0.590129
0.11525,0.60421
0.1155,0.59982
0.11575,0.579938
0.116,0.593489
0.11625,0.609119
0.1165,0.590444
0.11675,0.57732
0.117,0.604189
0.11725,0.595357
0.1175,0.615815
0.11775,0.565799
0.118,0.612545
0.11825,0.576779
0.1185,0.650947
0.11875,0.665401
0.119,0.579489
0.11925,0.574083
0.1195,0.63589
0.11975,0.622218
0.12,0.642556
0.12025,0.659091
0.1205,0.581828
0.12075,0.633795
0.121,0.613386
0.12125,0.64127
0.1215,0.627776
0.12175,0.600799
0.122,0.603524
0.12225,0.586713
0.1225,0.619883
0.12275,0.643255
0.123,0.621466
0.12325,0.660726
0.1235,0.624857
0.12375,0.613741
0.124,0.665229
0.12425,0.637675
0.1245,0.711375
0.12475,0.663353
0.125,0.70243
0.12525,0.731496
0.1255,0.764952
0.12575,0.71741
0.126,0.736602
0.12625,0.686534
0.1265,0.763331
0.12675,0.721999
0.127,0.72
0.12725,0.732325
0.1275,0.777829
0.12775,0.783995
0.128,0.723776
0.12825,0.746469
0.1285,0.770369
0.12875,0.749266
0.129,0.708153
0.12925,0.696152
0.1295,0.674671
0.12975,0.701637
0.13,0.685056
0.13025,0.694691
0.1305,0.640298
0.13075,0.660647
0.131,0.671722
0.13125,0.606156
0.1315,0.615396
0.13175,0.648911
0.132,0.614723
0.13225,0.609509
0.1325,0.621586
0.13275,0.664675
0.133,0.654347
0.13325,0.661602
0.1335,0.646422
0.13375,0.675773
0.134,0.657226
0.13425,0.639032
0.1345,0.639837
0.13475,0.679974
0.135,0.680997
0.13525,0.723734
0.1355,0.689286
0.13575,0.685765
0.136,0.729854
0.13625,0.717318
0.1365,0.701957
0.13675,0.64662
0.137,0.682728
0.13725,0.672729
0.1375,0.68248
0.13775,0.667019
0.138,0.688388
0.13825,0.678696
0.1385,0.682114
0.13875,0.687847
0.139,0.659986
0.13925,0.676847
0.1395,0.699634
0.13975,0.636341
0.14,0.695982
0.14025,0.734652
0.1405,0.746308
0.14075,0.682766
0.141,0.737751
0.14125,0.746032
0.1415,0.731761
0.14175,0.757304
0.142,0.71134
0.14225,0.811374
0.1425,0.801453
0.14275,0.753079
0.143,0.778334
0.14325,0.792728
0.1435,0.832255
0.14375,0.821732
0.144,0.789466
0.14425,0.759324
0.1445,0.766481
0.14475,0.74082
0.145,0.744048
0.14525,0.759953
0.1455,0.721018
0.14575,0.697727
0.146,0.693223
0.14625,0.670761
0.1465,0.661613
0.14675,0.643928
0.147,0.656404
0.14725,0.672977
0.1475,0.605425
0.14775,0.632452
0.148,0.626857
0.14825,0.580863
0.1485,0.581591
0.14875,0.603932
0.149,0.569644
0.14925,0.657285
0.1495,0.578664
0.14975,0.615749
0.15,0.601617
0.15025,0.590993
0.1505,0.687512
0.15075,0.63432
0.151,0.721037
0.15125,0.672848
0.1515,0.682631
0.15175,0.670916
0.152,0.678053
0.15225,0.733151
0.1525,0.710883
0.15275,0.740594
0.153,0.727587
0.15325,0.687441
0.1535,0.674916
0.15375,0.690374
0.154,0.682456
0.15425,0.683131
0.1545,0.689152
0.15475,0.679181
0.155,0.707567
0.15525,0.640636
0.1555,0.62336
0.15575,0.710923
0.156,0.697893
0.15625,0.663384
0.1565,0.639171
0.15675,0.681852
0.157,0.640865
0.15725,0.655336
0.1575,0.708171
0.15775,0.695006
0.158,0.74999
0.15825,0.722339
0.1585,0.74176
0.15875,0.736295
0.159,0.710013
0.15925,0.699884
0.1595,0.735437
0.15975,0.723996
0.16,0.703677
0.16025,0.715464
0.1605,0.730145
0.16075,0.693728
0.161,0.706171
0.16125,0.655358
0.1615,0.696969
0.16175,0.682119
0.162,0.664042
0.16225,0.623893
0.1625,0.612141
0.16275,0.585448
0.163,0.588762
0.16325,0.559311
0.1635,0.555041
0.16375,0.589331
0.164,0.581004
0.16425,0.549944
0.1645,0.559904
0.16475,0.489762
0.165,0.504632
0.16525,0.612018
0.1655,0.562412
0.16575,0.563712
0.166,0.574941
0.16625,0.555849
0.1665,0.539938
0.16675,0.573578
0.167,0.608824
0.16725,0.593531
0.1675,0.582271
0.16775,0.619389
0.168,0.655424
0.16825,0.625709
0.1685,0.641876
0.16875,0.636846
0.169,0.602456
0.16925,0.656484
0.1695,0.642346
0.16975,0.620041
0.17,0.639327
0.17025,0.621604
0.1705,0.59873
0.17075,0.619098
0.171,0.635669
0.17125,0.614294
0.1715,0.647052
0.17175,0.604625
0.172,0.621814
0.17225,0.615435
0.1725,0.580419
0.17275,0.657215
0.173,0.626665
0.17325,0.563901
0.1735,0.580315
0.17375,0.553877
0.174,0.55409
0.17425,0.553405
0.1745,0.584157
0.17475,0.571181
0.175,0.621695
0.17525,0.599207
0.1755,0.581046
0.17575,0.587858
0.176,0.615166
0.17625,0.614484
0.1765,0.570181
0.17675,0.543216
0.177,0.575424
0.17725,0.565183
0.1775,0.540291
0.17775,0.505373
0.178,0.549066
0.17825,0.490233
0.1785,0.527762
0.17875,0.500214
0.179,0.479808
0.17925,0.507221
0.1795,0.420755
0.17975,0.473963
0.18,0.47318
0.18025,0.45071
0.1805,0.35896
0.18075,0.420209
0.181,0.399528
0.18125,0.419749
0.1815,0.402126
0.18175,0.461717
0.182,0.41796
0.18225,0.443134
0.1825,0.413069
0.18275,0.467097
0.183,0.413159
0.18325,0.428358
0.1835,0.469981
0.18375,0.46412
0.184,0.485013
0.18425,0.49058
0.1845,0.472441
0.18475,0.497085
0.185,0.520626
0.18525,0.503725
0.1855,0.47891
0.18575,0.481995
0.186,0.501207
0.18625,0.517602
0.1865,0.488732
0.18675,0.495345
0.187,0.459488
0.18725,0.516992
0.1875,0.497206
0.18775,0.473437
0.188,0.435545
0.18825,0.477519
0.1885,0.426492
0.18875,0.412832
0.189,0.388715
0.18925,0.370017
0.1895,0.403697
0.18975,0.374709
0.19,0.35699
0.19025,0.367834
0.1905,0.393083
0.19075,0.390575
0.191,0.384159
0.19125,0.396741
0.1915,0.406798
0.19175,0.394857
0.192,0.397229
0.19225,0.379363
0.1925,0.399067
0.19275,0.406056
0.193,0.379514
0.19325,0.339001
0.1935,0.342121
0.19375,0.323625
0.194,0.378043
0.19425,0.349814
0.1945,0.360249
0.19475,0.302935
0.195,0.319437
0.19525,0.331921
0.1955,0.323434
0.19575,0.265971
0.196,0.249537
0.19625,0.2599
0.1965,0.248629
0.19675,0.302657
0.197,0.260896
0.19725,0.189727
0.1975,0.225299
0.19775,0.245776
0.198,0.225567
0.19825,0.258673
0.1985,0.231376
0.19875,0.208423
0.199,0.264942
0.19925,0.258953
0.1995,0.264856
0.19975,0.281052
0.2,0.281172
0.20025,0.291871
0.2005,0.300596
0.20075,0.307884
0.201,0.283415
0.20125,0.317128
0.2015,0.357089
0.20175,0.308644
0.202,0.323303
0.20225,0.349835
0.2025,0.34487
0.20275,0.323943
0.203,0.349705
0.20325,0.295632
0.2035,0.351987
0.20375,0.305384
0.204,0.26219
0.20425,0.271904
0.2045,0.300418
0.20475,0.282628
0.205,0.21699
0.20525,0.223506
0.2055,0.224958
0.20575,0.221957
0.206,0.215387
0.20625,0.162456
0.2065,0.158405
0.20675,0.215138
0.207,0.175699
0.20725,0.193745
0.2075,0.178337
0.20775,0.157025
0.208,0.156873
0.20825,0.15998
0.2085,0.167108
0.20875,0.166849
0.209,0.164956
0.20925,0.137653
0.2095,0.151119
0.20975,0.199321
0.21,0.187112
0.21025,0.142602
0.2105,0.144247
0.21075,0.0718219
0.211,0.124543
0.21125,0.0759388
0.2115,0.0919877
0.21175,0.117846
0.212,0.11519
0.21225,0.119282
0.2125,0.0508727
0.21275,0.0264733
0.213,0.0562783
0.21325,0.0359018
0.2135,0.0615704
0.21375,0.0304558
0.214,0.0120701
0.21425,0.0589163
0.2145,0.0167668
0.21475,0.0771651
0.215,0.0408397
0.21525,0.048482
0.2155,0.0611626
0.21575,0.0671016
0.216,0.0703734
0.21625,0.0797596
0.2165,0.0874232
0.21675,0.102285
0.217,0.113358
0.21725,0.130852
0.2175,0.0817586
0.21775,0.160819
0.218,0.126722
0.21825,1.44E-01
0.2185,0.186046
0.21875,0.0758093
0.219,0.0651402
0.21925,0.0949938
0.2195,0.097808
0.21975,0.137215
0.22,0.115562
0.22025,0.0867684
0.2205,0.0964712
0.22075,0.0831038
0.221,0.0757236
0.22125,0.0638927
0.2215,0.0377657
0.22175,0.0317122
0.222,0.017283
0.22225,-0.0192913
0.2225,0.0102382
0.22275,-0.0688025
0.223,-0.0367333
0.22325,-0.0734584
0.2235,-0.0442707
0.22375,-0.0687043
0.224,-0.0739536
0.22425,-0.0816104
0.2245,-0.0576015
0.22475,-0.0427319
0.225,-0.0786866
0.22525,-0.0967572
0.2255,-0.0916165
0.22575,-0.0699334
0.226,-0.0205162
0.22625,-0.0526981
0.2265,-0.0287663
0.22675,-0.0791373
0.227,-0.0872525
0.22725,-0.0687217
0.2275,-0.129302
0.22775,-0.0993709
0.228,-0.0557036
0.22825,-0.0876807
0.2285,-0.12306
0.22875,-0.113304
0.229,-0.122138
0.22925,-0.125578
0.2295,-0.106539
0.22975,-0.103132
0.23,-0.107082
0.23025,-0.101344
0.2305,-0.132084
0.23075,-0.153805
0.231,-0.0928351
0.23125,-0.118709
0.2315,-0.11109
0.23175,-0.115186
0.232,-0.144873
0.23225,-0.0850101
0.2325,-0.0792453
0.23275,-0.0859018
0.233,-0.0550279
0.23325,-0.0513271
0.2335,-0.0791676
0.23375,-0.0102002
0.234,-0.110399
0.23425,-0.0913218
0.2345,-0.085163
0.23475,-0.0807202
0.235,-0.0265155
0.23525,-0.0696374
0.2355,0.023534
0.23575,-0.0681137
0.236,-0.02257
0.23625,-0.0873146
0.2365,-0.0614244
0.23675,-0.0663381
0.237,-0.0949176
0.23725,-0.136542
0.2375,-0.150994
0.23775,-0.140662
0.238,-0.160164
0.23825,-0.184733
0.2385,-0.21298
0.23875,-0.215293
0.239,-0.249972
0.23925,-0.258793
0.2395,-0.243956
0.23975,-0.230833
0.24,-0.234435
0.24025,-0.232906
0.2405,-0.267001
0.24075,-0.244773
0.241,-0.229146
0.24125,-0.2286
0.2415,-0.203392
0.24175,-0.221182
0.242,-0.241046
0.24225,-0.20676
0.2425,-0.200566
0.24275,-0.227711
0.243,-0.18044
0.24325,-0.215295
0.2435,-0.213012
0.24375,-0.18589
0.244,-0.227251
0.24425,-0.206285
0.2445,-0.195648
0.24475,-0.17606
0.245,-0.221877
0.24525,-0.235286
0.2455,-0.209021
0.24575,-0.233048
0.246,-0.236138
0.24625,-0.22597
0.2465,-0.245591
0.24675,-0.244315
0.247,-0.217718
0.24725,-0.231238
0.2475,-0.216746
0.24775,-0.259947
0.248,-0.216613
0.24825,-0.236472
0.2485,-0.226978
0.24875,-0.208747
0.249,-0.269515
0.24925,-0.20006
0.2495,-0.248622
0.24975,-0.155025
0.25,-0.228878
0.25025,-0.195195
0.2505,-0.188797
0.25075,-0.131087
0.251,-0.213519
0.25125,-0.195434
0.2515,-0.215385
0.25175,-0.175529
0.252,-0.212792
0.25225,-0.172721
0.2525,-0.20877
0.25275,-0.219117
0.253,-0.193088
0.25325,-0.22773
0.2535,-0.238224
0.25375,-0.254005
0.254,-0.273762
0.25425,-0.277595
0.2545,-0.283395
0.25475,-0.332424
0.255,-0.323201
0.25525,-0.328452
0.2555,-0.347086
0.25575,-0.323946
0.256,-0.35192
0.25625,-0.38875
0.2565,-0.395479
0.25675,-0.392906
0.257,-0.372874
0.25725,-0.366663
0.2575,-0.290033
0.25775,-0.296723
0.258,-0.319037
0.25825,-0.322057
0.2585,-0.320901
0.25875,-0.303664
0.259,-0.275212
0.25925,-0.311913
0.2595,-0.31787
0.25975,-0.296998
0.26,-0.306353
0.26025,-0.296406
0.2605,-0.241381
0.26075,-0.255417
0.261,-0.250326
0.26125,-0.254095
0.2615,-0.27924
0.26175,-0.278643
0.262,-0.263354
0.26225,-0.292331
0.2625,-0.270151
0.26275,-0.301536
0.263,-0.297768
0.26325,-0.257687
0.2635,-0.320473
0.26375,-0.273084
0.264,-0.300498
0.26425,-0.301294
0.2645,-0.28392
0.26475,-0.266136
0.265,-0.274768
0.26525,-0.30859
0.2655,-0.334607
0.26575,-0.224161
0.266,-0.231407
0.26625,-0.237046
0.2665,-0.248363
0.26675,-0.219283
0.267,-0.249642
0.26725,-0.241218
0.2675,-0.231526
0.26775,-0.277062
0.268,-0.238809
0.26825,-0.243736
0.2685,-0.277803
0.26875,-0.295636
0.269,-0.244448
0.26925,-0.299853
0.2695,-0.272139
0.26975,-0.286807
0.27,-0.290505
0.27025,-0.307782
0.2705,-0.31579
0.27075,-0.361397
0.271,-0.35573
0.27125,-0.373589
0.2715,-0.394302
0.27175,-0.38313
0.272,-0.393442
0.27225,-0.357992
0.2725,-0.37986
0.27275,-0.40949
0.273,-0.390054
0.27325,-0.334034
0.2735,-0.317121
0.27375,-0.344024
0.274,-0.366461
0.27425,-0.391363
0.2745,-0.345394
0.27475,-0.383025
0.275,-0.31575
0.27525,-0.341801
0.2755,-0.285757
0.27575,-0.300993
0.276,-0.29841
0.27625,-0.259161
0.2765,-0.247742
0.27675,-0.250427
0.277,-0.266015
0.27725,-0.282805
0.2775,-0.273552
0.27775,-0.204991
0.278,-0.246391
0.27825,-0.241641
0.2785,-0.261487
0.27875,-0.268844
0.279,-0.266992
0.27925,-0.231713
0.2795,-0.215459
0.27975,-0.277918
0.28,-0.267919
0.28025,-0.27223
0.2805,-0.321883
0.28075,-0.29503
0.281,-0.261869
0.28125,-0.325608
0.2815,-0.361027
0.28175,-0.225695
0.282,-0.227862
0.28225,-0.279093
0.2825,-0.244187
0.28275,-0.271172
0.283,-0.27262
0.28325,-0.269401
0.2835,-0.258261
0.28375,-0.232244
0.284,-0.257516
0.28425,-0.269548
0.2845,-0.271143
0.28475,-0.265499
0.285,-0.282632
0.28525,-0.242529
0.2855,-0.275621
0.28575,-0.284677
0.286,-0.266037
0.28625,-0.245138
0.2865,-0.278815
0.28675,-0.299298
0.287,-0.283392
0.28725,-0.341146
0.2875,-0.35047
0.28775,-0.36659
0.288,-0.383903
0.28825,-0.272884
0.2885,-0.3516
0.28875,-0.317302
0.289,-0.281884
0.28925,-0.33007
0.2895,-0.365811
0.28975,-0.293495
0.29,-0.33983
0.29025,-0.377126
0.2905,-0.320099
0.29075,-0.291031
0.291,-0.280952
0.29125,-0.29658
0.2915,-0.26557
0.29175,-0.249355
0.292,-0.237736
0.29225,-0.221588
0.2925,-0.222187
0.29275,-0.221203
0.293,-0.230675
0.29325,-0.171033
0.2935,-0.172543
0.29375,-0.15488
0.294,-0.119513
0.29425,-0.165026
0.2945,-0.145603
0.29475,-0.127903
0.295,-0.202893
0.29525,-0.19041
0.2955,-0.190379
0.29575,-0.150884
0.296,-0.154599
0.29625,-0.238334
0.2965,-0.185742
0.29675,-0.219948
0.297,-0.218403
0.29725,-0.192495
0.2975,-0.196631
0.29775,-0.208309
0.298,-0.22422
0.29825,-0.184817
0.2985,-0.228518
0.29875,-0.176797
0.299,-0.239923
0.29925,-0.210664
0.2995,-0.212003
0.29975,-0.201154
0.3,-0.195946
0.30025,-0.187893
0.3005,-0.179062
0.30075,-0.194009
0.301,-0.161297
0.30125,-0.184758
0.3015,-0.188212
0.30175,-0.208842
0.302,-0.226918
0.30225,-0.134032
0.3025,-0.217536
0.30275,-0.176149
0.303,-0.174874
0.30325,-0.199237
0.3035,-0.21944
0.30375,-0.23602
0.304,-0.240186
0.30425,-0.25537
0.3045,-0.228355
0.30475,-0.268688
0.305,-0.195211
0.30525,-0.23827
0.3055,-0.23026
0.30575,-0.240945
0.306,-0.230446
0.30625,-0.198417
0.3065,-0.230386
0.30675,-0.183672
0.307,-0.191374
0.30725,-0.170399
0.3075,-0.170002
0.30775,-0.166625
0.308,-0.147083
0.30825,-0.121385
0.3085,-0.118588
0.30875,-0.0858882
0.309,-0.0747154
0.30925,-0.0700482
0.3095,-0.0773487
0.30975,-0.0798689
0.31,-0.0389427
0.31025,-0.0358122
0.3105,-0.0501617
0.31075,-0.0182635
0.311,-0.0830702
0.31125,-0.0526564
0.3115,-0.0156317
0.31175,-0.0606064
0.312,-0.0783423
0.31225,-0.100081
0.3125,-0.105166
0.31275,-0.0252684
0.313,-0.104224
0.31325,-0.0668318
0.3135,-0.0739681
0.31375,-0.0982878
0.314,-0.102787
0.31425,-0.109503
0.3145,-0.104263
0.31475,-0.158565
0.315,-0.113918
0.31525,-0.126003
0.3155,-0.137891
0.31575,-0.101123
0.316,-0.108128
0.31625,-0.106267
0.3165,-0.0847158
0.31675,-0.121343
0.317,-0.11304
0.31725,-0.0981954
0.3175,-0.0924663
0.31775,-0.047377
0.318,-0.137442
0.31825,-0.042227
0.3185,-0.0626328
0.31875,-0.0374978
0.319,-0.0457537
0.31925,-0.0417236
0.3195,-0.0083555
0.31975,-0.0431982
0.32,-0.0540844
0.32025,-0.0816149
0.3205,-0.0498256
0.32075,-0.0757736
0.321,-0.103118
0.32125,-0.116515
0.3215,-0.0503671
0.32175,-0.114304
0.322,-0.093797
0.32225,-0.0793887
0.3225,-0.0766774
0.32275,-0.0447032
0.323,-0.0788146
0.32325,-3.56E-02
0.3235,-0.0641101
0.32375,-0.063027
0.324,-0.0521733
0.32425,-0.00775469
0.3245,0.0306165
0.32475,0.0291698
0.325,0.0284743
0.32525,0.0613905
0.3255,-0.00102102
0.32575,0.0348841
0.326,0.0314896
0.32625,0.0968018
0.3265,0.0970487
0.32675,0.0781374
0.327,0.136029
0.32725,0.0273473
0.3275,0.10078
0.32775,0.0436938
0.328,0.118537
0.32825,0.0635412
0.3285,0.0629552
0.32875,0.0937308
0.329,0.0802921
0.32925,0.0327673
0.3295,0.0362623
0.32975,0.017724
0.33,0.0217033
0.33025,0.0234797
0.3305,-0.00531525
0.33075,-0.0336971
0.331,-0.00548624
0.33125,-0.0289202
0.3315,-0.0407793
0.33175,-0.061527
0.332,-0.0184059
0.33225,-0.0119094
0.3325,-0.0626427
0.33275,-0.00731809
0.333,0.0165593
0.33325,-0.00423212
0.3335,0.00079688
0.33375,0.03932
0.334,0.00231535
0.33425,0.0158404
0.3345,0.0413725
0.33475,0.0367674
0.335,0.0802107
0.33525,0.0319505
0.3355,0.0402475
0.33575,0.0319226
0.336,0.119142
0.33625,0.075465
0.3365,0.02168
0.33675,0.0238884
0.337,0.04819
0.33725,0.0323785
0.3375,0.0528512
0.33775,0.0411097
0.338,0.046756
0.33825,0.0588592
0.3385,0.0366833
0.33875,0.0572998
0.339,0.0380093
0.33925,0.0394659
0.3395,0.060077
0.33975,0.0893208
0.34,0.071804
0.34025,0.102774
0.3405,0.0775205
0.34075,0.144875
0.341,0.0753727
0.34125,0.0968433
0.3415,0.136154
0.34175,0.114556
0.342,0.143291
0.34225,0.135618
0.3425,0.099555
0.34275,0.239673
0.343,0.159328
0.34325,0.186251
0.3435,0.196958
0.34375,0.156141
0.344,0.154606
0.34425,0.136269
0.3445,0.156365
0.34475,0.119059
0.345,0.166171
0.34525,0.153523
0.3455,0.15239
0.34575,0.115281
0.346,0.113625
0.34625,0.0896943
0.3465,0.0966484
0.34675,0.0705404
0.347,0.0402264
0.34725,0.0907077
0.3475,0.0719066
0.34775,0.0268839
0.348,0.00796008
0.34825,0.0569367
0.3485,0.0557839
0.34875,0.0815322
0.349,0.0376812
0.34925,0.0977414
0.3495,0.0363901
0.34975,0.0555846
0.35,0.107587
0.35025,0.127435
0.3505,0.0854217
0.35075,0.0960912
0.351,0.157513
0.35125,0.120917
0.3515,0.0984183
0.35175,0.117848
0.352,0.128245
0.35225,0.201139
0.3525,0.149951
0.35275,0.155764
0.353,0.121461
0.35325,0.169681
0.3535,0.160943
0.35375,0.14733
0.354,0.142368
0.35425,0.156224
0.3545,0.142561
0.35475,0.163411
0.355,0.13835
0.35525,0.172978
0.3555,0.1263
0.35575,0.127132
0.356,0.210284
0.35625,0.122149
0.3565,0.231455
0.35675,0.130981
0.357,0.164459
0.35725,0.132399
0.3575,0.189799
0.35775,0.173419
0.358,0.150856
0.35825,0.190795
0.3585,0.23646
0.35875,0.156358
0.359,0.215515
0.35925,0.191341
0.3595,0.218429
0.35975,0.184695
0.36,0.226085
0.36025,0.20536
0.3605,0.242124
0.36075,0.18451
0.361,0.205854
0.36125,0.186881
0.3615,0.187466
0.36175,0.190152
0.362,0.170303
0.36225,0.169215
0.3625,0.121129
0.36275,0.156233
0.363,0.12777
0.36325,0.12237
0.3635,0.138588
0.36375,0.0979166
0.364,0.0896459
0.36425,0.0617761
0.3645,0.0783382
0.36475,0.104366
0.365,0.0242398
0.36525,0.0996784
0.3655,0.0748058
0.36575,0.0611132
0.366,0.0628933
0.36625,0.0652771
0.3665,0.104625
0.36675,0.137249
0.367,0.140509
0.36725,0.118804
0.3675,0.176668
0.36775,0.185141
0.368,0.208885
0.36825,0.169655
0.3685,0.203647
0.36875,0.20071
0.369,0.207089
0.36925,0.166615
0.3695,0.192514
0.36975,0.201421
0.37,0.167793
0.37025,0.208447
0.3705,0.191419
0.37075,0.173137
0.371,0.175768
0.37125,0.147113
0.3715,0.163506
0.37175,0.154712
0.372,0.210866
0.37225,0.178516
0.3725,0.198569
0.37275,0.17875
0.373,0.163321
0.37325,0.107868
0.3735,0.225163
0.37375,0.202557
0.374,0.15818
0.37425,0.160699
0.3745,0.220096
0.37475,0.168386
0.375,0.164963
0.37525,0.218897
0.3755,0.188374
0.37575,0.197159
0.376,0.218733
0.37625,0.220919
0.3765,0.179048
0.37675,0.207944
0.377,0.159663
0.37725,0.206378
0.3775,0.198644
0.37775,0.197215
0.378,0.157852
0.37825,0.163529
0.3785,0.148791
0.37875,0.113145
0.379,0.0892406
0.37925,0.120541
0.3795,0.130499
0.37975,0.0823016
0.38,0.0716775
0.38025,0.11041
0.3805,0.00690036
0.38075,0.0251456
0.381,0.00311909
0.38125,0.0406022
0.3815,0.0966055
0.38175,0.0504726
0.382,0.0166869
0.38225,0.104894
0.3825,0.0776715
0.38275,0.0823339
0.383,0.0893929
0.38325,0.116486
0.3835,0.110683
0.38375,0.152555
0.384,0.140879
0.38425,0.165859
0.3845,0.190237
0.38475,0.154249
0.385,0.194318
0.38525,0.182258
0.3855,0.218047
0.38575,0.192559
0.386,0.232831
0.38625,0.250875
0.3865,0.204278
0.38675,0.192913
0.387,0.20644
0.38725,0.226894
0.3875,0.147172
0.38775,0.126164
0.388,0.131168
0.38825,0.171924
0.3885,0.157305
0.38875,0.116619
0.389,0.204072
0.38925,0.146127
0.3895,0.190883
0.38975,0.158616
0.39,0.184764
0.39025,0.132175
0.3905,0.102072
0.39075,0.137776
0.391,0.139925
0.39125,0.13381
0.3915,0.130806
0.39175,0.141136
0.392,0.136945
0.39225,0.127412
0.3925,0.147857
0.39275,0.130118
0.393,0.160008
0.39325,0.108031
0.3935,0.0990919
0.39375,0.0932904
0.394,0.0782299
0.39425,0.150408
0.3945,0.109272
0.39475,0.126433
0.395,0.0804791
0.39525,0.104797
0.3955,0.0919362
0.39575,0.0685988
0.396,0.0776525
0.39625,0.079794
0.3965,0.0325878
0.39675,0.0351581
0.397,-0.00236352
0.39725,-0.0209138
0.3975,-0.0312709
0.39775,0.0051582
0.398,-0.0186649
0.39825,0.0252976
0.3985,0.033547
0.39875,5.45E-02
0.399,0.0498722
0.39925,0.0790248
0.3995,0.0710186
0.39975,0.0802013
0.4,0.0930574
0.40025,0.108766
0.4005,0.0961603
0.40075,0.118509
0.401,0.148426
0.40125,0.15522
0.4015,0.188204
0.40175,0.135037
0.402,0.181082
0.40225,0.121635
0.4025,0.122457
0.40275,0.12134
0.403,0.157324
0.40325,0.132325
0.4035,0.112478
0.40375,0.123327
0.404,0.0839996
0.40425,0.0773682
0.4045,0.08862
0.40475,0.0937491
0.405,0.123767
0.40525,0.138052
0.4055,0.0867499
0.40575,0.0874994
0.406,0.103917
0.40625,0.114813
0.4065,0.0690785
0.40675,0.00625133
0.407,0.0464852
0.40725,0.0484253
0.4075,0.0456526
0.40775,0.0479469
0.408,0.0417981
0.40825,0.0394099
0.4085,0.0289232
0.40875,0.0618907
0.409,0.0272035
0.40925,0.078105
0.4095,0.0447424
0.40975,-0.00128751
0.41,0.0632229
0.41025,0.0710082
0.4105,0.0735818
0.41075,0.0571684
0.411,0.0436917
0.41125,0.0282683
0.4115,-0.0179386
0.41175,0.0638325
0.412,-0.0132927
0.41225,-0.00741677
0.4125,0.0237379
0.41275,-0.0265402
0.413,0.00187858
0.41325,-0.000718638
0.4135,-0.0145773
0.41375,-0.0589126
0.414,-0.0341218
0.41425,0.0178107
0.4145,-0.0599369
0.41475,0.0233454
0.415,-0.0409629
0.41525,0.0143459
0.4155,0.0164983
0.41575,-0.00871467
0.416,0.035062
0.41625,0.0331389
0.4165,0.0409937
0.41675,0.0568705
0.417,0.0801689
0.41725,0.0675361
0.4175,0.0892869
0.41775,0.104129
0.418,0.145008
0.41825,0.137638
0.4185,0.0717579
0.41875,0.145551
0.419,0.0753048
0.41925,0.0989547
0.4195,0.0294599
0.41975,0.0588507
0.42,0.122908
0.42025,0.0608314
0.4205,0.0551657
0.42075,0.0137342
0.421,0.0364345
0.42125,0.0316008
0.4215,-0.014422
0.42175,0.0172511
0.422,0.0335076
0.42225,-0.0206575
0.4225,0.00575525
0.42275,-0.0216471
0.423,-0.0682116
0.42325,-0.0140111
0.4235,-0.0198442
0.42375,-0.0568738
0.424,-0.0538421
0.42425,-0.0522377
0.4245,-0.056108
0.42475,-0.0531215
0.425,-0.0713282
0.42525,-0.00748994
0.4255,-0.0438161
0.42575,0.0146211
0.426,-0.0354837
0.42625,-0.00795998
0.4265,0.00309154
0.42675,-0.0116761
0.427,-0.0189484
0.42725,0.0346548
0.4275,0.0152455
0.42775,-0.0186408
0.428,-0.0568043
0.42825,0.0239081
0.4285,-0.0378241
0.42875,-0.0746697
0.429,-0.0759062
0.42925,-0.047356
0.4295,-0.0470285
0.42975,-0.0617553
0.43,-0.0422113
0.43025,-0.0586499
0.4305,-0.0620543
0.43075,-0.0399489
0.431,-0.0835916
0.43125,-0.0940294
0.4315,-0.0407131
0.43175,-0.0509013
0.432,-0.062384
0.43225,-0.0494554
0.4325,-0.00757141
0.43275,-0.0197834
0.433,-0.0281386
0.43325,0.0454233
0.4335,0.0122922
0.43375,0.0303336
0.434,0.0484996
0.43425,0.00326323
0.4345,0.068593
0.43475,-0.0168422
0.435,0.0391037
0.43525,0.0271264
0.4355,0.0279006
0.43575,0.00803799
0.436,0.0978506
0.43625,0.0190989
0.4365,-0.0270022
0.43675,0.00200738
0.437,-0.00720778
0.43725,-0.0236593
0.4375,-3.49E-02
0.43775,-0.0393677
0.438,-0.0656267
0.43825,-0.0631041
0.4385,-0.0808761
0.43875,-0.110589
0.439,-0.0956829
0.43925,-0.0998292
0.4395,-0.113471
0.43975,-0.162102
0.44,-0.129075
0.44025,-0.143105
0.4405,-0.0716647
0.44075,-0.0976364
0.441,-0.127968
0.44125,-0.138823
0.4415,-0.069673
0.44175,-0.0758177
0.442,-0.102383
0.44225,-0.087399
0.4425,-0.0605709
0.44275,-0.135072
0.443,-0.107369
0.44325,-0.0710123
0.4435,-0.129315
0.44375,-0.0379758
0.444,-0.0643316
0.44425,-0.0913423
0.4445,-0.0913965
0.44475,-0.0687897
0.445,-0.0501539
0.44525,-0.0728458
0.4455,-0.062921
0.44575,-0.0635609
0.446,-0.0748553
0.44625,-0.0766707
0.4465,-0.0657759
0.44675,-0.091181
0.447,-0.062531
0.44725,-0.102403
0.4475,-0.0608438
0.44775,-0.0548278
0.448,-0.0557816
0.44825,-0.127591
0.4485,-0.0497552
0.44875,-0.020594
0.449,-0.0634639
0.44925,-0.0640324
0.4495,-0.0287999
0.44975,-0.0307217
0.45,0.0146015
0.45025,-0.0588369
0.4505,-0.0237279
0.45075,0.0352459
0.451,-0.0358783
0.45125,-0.00519486
0.4515,-0.0260985
0.45175,0.0452779
0.452,0.0169205
0.45225,-0.0281288
0.4525,-0.0488488
0.45275,-0.05129
0.453,-0.0321473
0.45325,-0.0243393
0.4535,-0.0400045
0.45375,-0.0750102
0.454,-0.0783679
0.45425,-0.0790948
0.4545,-0.0952718
0.45475,-0.106349
0.455,-0.109966
0.45525,-0.116828
0.4555,-0.133665
0.45575,-0.123942
0.456,-0.175962
0.45625,-0.214544
0.4565,-0.1156
0.45675,-0.22097
0.457,-0.143328
0.45725,-0.179656
0.4575,-0.0802873
0.45775,-0.146114
0.458,-0.13378
0.45825,-0.138583
0.4585,-0.107713
0.45875,-0.0971883
0.459,-0.119803
0.45925,-0.115152
0.4595,-0.07136
0.45975,-0.113072
0.46,-0.116558
0.46025,-0.0640071
0.4605,-0.0490302
0.46075,-0.0934575
0.461,-0.0657914
0.46125,-0.035405
0.4615,-0.0742274
0.46175,-0.0495987
0.462,-0.0526701
0.46225,-0.0525555
0.4625,-0.057473
0.46275,-0.0658796
0.463,-0.0617814
0.46325,-0.0389649
0.4635,-0.0252103
0.46375,-0.127872
0.464,-0.119094
0.46425,-0.0128078
0.4645,-0.00703198
0.46475,-0.117626
0.465,-0.0206285
0.46525,-0.0603934
0.4655,-0.0106165
0.46575,-0.0567296
0.466,-0.0760392
0.46625,-0.0902687
0.4665,-0.054271
0.46675,-0.039702
0.467,-0.0216498
0.46725,-0.05418
0.4675,-0.00869681
0.46775,-0.0192773
0.468,-0.045191
0.46825,-0.0357332
0.4685,-0.0432196
0.46875,-0.0141971
0.469,-0.0637355
0.46925,-0.0305229
0.4695,-0.0426085
0.46975,-0.056557
0.47,-0.0558365
0.47025,-0.0670821
0.4705,-0.0923458
0.47075,-0.0839545
0.471,-0.104339
0.47125,-0.0903022
0.4715,-0.151961
0.47175,-0.154394
0.472,-0.133729
0.47225,-0.147769
0.4725,-0.149088
0.47275,-0.168267
0.473,-0.199661
0.47325,-0.154251
0.4735,-0.195634
0.47375,-0.188546
0.474,-0.122862
0.47425,-0.0883753
0.4745,-0.116148
0.47475,-0.13211
0.475,-0.117299
0.47525,-0.110422
0.4755,-0.0500646
0.47575,-0.0757505
0.476,-0.0779115
0.47625,-0.0658035
0.4765,-0.072382
0.47675,-0.0473828
0.477,-0.0316516
0.47725,-0.0130658
0.4775,-0.0484096
0.47775,-0.0151041
0.478,-0.0149522
0.47825,0.000859594
0.4785,0.024481
0.47875,-0.037208
0.479,-0.0269421
0.47925,-0.0501428
0.4795,-0.0304358
0.47975,-0.0121715
0.48,-0.0139774
0.48025,0.0102504
0.4805,-0.0534197
0.48075,-0.0400942
0.481,-0.0377329
0.48125,-0.0510443
0.4815,-0.125575
0.48175,-0.019902
0.482,-0.0849189
0.48225,-0.0311763
0.4825,-0.0537511
0.48275,-0.0156357
0.483,-0.0675089
0.48325,-0.0543369
0.4835,-0.0196842
0.48375,-0.0190902
0.484,-0.0308906
0.48425,-0.0109456
0.4845,-0.0362895
0.48475,-0.0122154
0.485,-0.0516393
0.48525,-0.0384108
0.4855,-0.0450788
0.48575,0.000220528
0.486,-0.0409565
0.48625,-0.0347858
0.4865,-0.0439663
0.48675,-0.0810292
0.487,-0.0451934
0.48725,-0.117802
0.4875,-0.133625
0.48775,-0.1311
0.488,-0.0720453
0.48825,-0.0769041
0.4885,-0.1307
0.48875,-0.0967367
0.489,-0.199098
0.48925,-0.174299
0.4895,-0.145788
0.48975,-0.0854991
0.49,-0.0752997
0.49025,-0.0996975
0.4905,-0.0636243
0.49075,-0.125938
0.491,-0.119237
0.49125,-0.0822748
0.4915,-0.0528433
0.49175,-0.0579129
0.492,-0.0393472
0.49225,-0.024217
0.4925,-3.41E-02
0.49275,0.00336332
0.493,-0.0322511
0.49325,-0.018101
0.4935,0.039993
0.49375,0.00206942
0.494,0.016869
0.49425,-0.0120348
0.4945,0.0490438
0.49475,0.0331343
0.495,0.031635
0.49525,0.00999737
0.4955,0.015726
0.49575,0.0314407
0.496,-0.00278569
0.49625,0.0539449
0.4965,-0.0380467
0.49675,-0.001011
0.497,-0.00842293
0.49725,-0.0363144
0.4975,0.0273418
0.49775,-0.0317884
0.498,-0.0284727
0.49825,-0.0939003
0.4985,-0.0819358
0.49875,-0.0412531
0.499,-0.0287449
0.49925,-0.0497663
0.4995,-0.0359281
0.49975,-0.0294873
0.5,-0.0294575
0.50025,-0.0288728
0.5005,-0.0424027
0.50075,-0.0219023
0.501,-0.0326745
0.50125,-0.0133418
0.5015,0.0224858
0.50175,-0.0318216
0.502,-0.0230744
0.50225,-0.0753226
0.5025,-0.0571416
0.50275,0.00813373
0.503,-0.0392692
0.50325,-0.0493732
0.5035,-0.039199
0.50375,-0.0169277
0.504,-0.0301667
0.50425,-0.0266046
0.5045,-0.0581165
0.50475,-0.0821751
0.505,-0.0897695
0.50525,-0.0731295
0.5055,-0.142961
0.50575,-0.0870691
0.506,-0.0826385
0.50625,-0.0602792
0.5065,-0.101613
0.50675,-0.102161
0.507,-0.0903714
0.50725,-0.0263891
0.5075,-0.0231973
0.50775,-0.0211327
0.508,-0.0205883
0.50825,-0.000167388
0.5085,0.00783925
0.50875,3.09E-02
0.509,0.0188045
0.50925,0.0232808
0.5095,0.012036
0.50975,0.105075
0.51,0.128414
0.51025,0.0513224
0.5105,0.0460522
0.51075,0.0872685
0.511,0.0698315
0.51125,0.00980175
0.5115,0.0319939
0.51175,0.110478
0.512,0.0335901
0.51225,0.0740122
0.5125,0.0856305
0.51275,0.0635817
0.513,-0.00642602
0.51325,0.0162203
0.5135,0.0290024
0.51375,0.0199694
0.514,-0.00844502
0.51425,-0.0202903
0.5145,0.0086338
0.51475,-0.0516038
0.515,-0.0177073
0.51525,-0.0260065
0.5155,-3.60E-02
0.51575,-0.0429511
0.516,-0.033045
0.51625,-0.0223684
0.5165,-0.0151868
0.51675,-0.0111281
0.517,0.0168056
0.51725,-4.55E-02
0.5175,0.0220973
0.51775,-1.08E-02
0.518,-0.00517336
0.51825,-0.0207746
0.5185,0.0251432
0.51875,-0.0140332
0.519,0.0371767
0.51925,-0.054114
0.5195,-0.0171672
0.51975,-0.00456338
0.52,-0.0169776
0.52025,-0.00310394
0.5205,-0.0196257
0.52075,-0.0621974
0.521,-0.0440173
0.52125,-0.0404749
0.5215,-0.00764268
0.52175,-0.0231788
0.522,-0.0402311
0.52225,-0.0401102
0.5225,-0.00827994
0.52275,-0.0229412
0.523,0.00829431
0.52325,-0.0171918
0.5235,-0.0162647
0.52375,0.00734935
0.524,0.0127823
0.52425,0.0173006
0.5245,0.00300678
0.52475,0.0119048
0.525,0.0268835
0.52525,0.0472615
0.5255,0.0871468
0.52575,0.0958338
0.526,0.065245
0.52625,0.132579
0.5265,0.0606853
0.52675,0.0327174
0.527,0.0518312
0.52725,0.0592614
0.5275,0.0588431
0.52775,0.121467
0.528,0.0741227
0.52825,0.0732305
0.5285,0.0867106
0.52875,0.108916
0.529,0.0477884
0.52925,0.0628476
0.5295,0.0377951
0.52975,0.0363074
0.53,0.0323007
0.53025,0.0191455
0.5305,0.0118523
0.53075,-0.0453003
0.531,-0.054801
0.53125,0.0090661
0.5315,-0.017925
0.53175,-0.0148934
0.532,-0.00841145
0.53225,0.0159125
0.5325,-0.0276123
0.53275,-0.0521708
0.533,0.00242195
0.53325,-0.0556511
0.5335,-0.00456009
0.53375,0.0137991
0.534,0.0594377
0.53425,0.0433464
0.5345,-0.0193684
0.53475,-0.0526209
0.535,-0.0202973
0.53525,-0.0543042
0.5355,0.0584155
0.53575,0.0957889
0.536,0.0358917
0.53625,0.0412544
0.5365,0.00101405
0.53675,-0.00753165
0.537,0.00127202
0.53725,0.025068
0.5375,0.0247373
0.53775,0.0100951
0.538,-0.00985653
0.53825,-0.00228532
0.5385,-0.00571082
0.53875,0.00645333
0.539,0.0080294
0.53925,0.00132304
0.5395,0.00745036
0.53975,0.0356969
0.54,-0.0316119
0.54025,0.0586587
0.5405,0.0150641
0.54075,0.0249826
0.541,0.0683915
0.54125,0.102416
0.5415,0.0376073
0.54175,0.0864165
0.542,0.0501145
0.54225,0.0427645
0.5425,0.115924
0.54275,0.121528
0.543,0.119492
0.54325,0.0947779
0.5435,0.153415
0.54375,0.0974554
0.544,0.0343923
0.54425,0.152289
0.5445,0.0814918
0.54475,0.0615704
0.545,0.0572915
0.54525,0.0717822
0.5455,0.0615315
0.54575,0.0419438
0.546,0.0244445
0.54625,0.0275058
0.5465,-0.00562171
0.54675,-0.0234375
0.547,-0.0198945
0.54725,-0.0502964
0.5475,0.0241073
0.54775,-0.0352503
0.548,-0.036503
0.54825,-0.0449427
0.5485,-0.076292
0.54875,-0.0649069
0.549,-0.0600302
0.54925,-0.0492154
0.5495,-0.0489911
0.54975,-0.0527353
0.55,-0.0474674
0.55025,-0.00964104
0.5505,0.0437881
0.55075,0.0105904
0.551,0.0461348
0.55125,0.0704706
0.5515,0.0234372
0.55175,-0.0248662
0.552,0.0433803
0.55225,0.059765
0.5525,0.0484767
0.55275,0.0410168
0.553,0.0149712
0.55325,0.0624804
0.5535,0.048893
0.55375,0.0537884
0.554,0.0379534
0.55425,0.0385108
0.5545,0.0310565
0.55475,0.0482377
0.555,0.027134
0.55525,0.0570466
0.5555,0.0287948
0.55575,-0.00501217
0.556,0.0897757
0.55625,0.0903646
0.5565,0.0520029
0.55675,0.0747801
0.557,0.0539135
0.55725,0.0244996
0.5575,0.0468457
0.55775,0.0672167
0.558,0.0586627
0.55825,0.0524039
0.5585,0.0947468
0.55875,0.128267
0.559,0.137686
0.55925,0.0419914
0.5595,0.0938939
0.55975,0.127891
0.56,0.136687
0.56025,0.128948
0.5605,0.0684876
0.56075,0.0850104
0.561,0.0689792
0.56125,0.0692161
0.5615,0.0369092
0.56175,0.0543991
0.562,0.0518801
0.56225,0.0358929
0.5625,0.0154082
0.56275,-0.0194141
0.563,-0.0250999
0.56325,-0.00818694
0.5635,-0.0304136
0.56375,-0.0997858
0.564,-0.0278084
0.56425,0.00719953
0.5645,-0.0648564
0.56475,-0.117106
0.565,0.000756064
0.56525,-0.00602677
0.5655,-0.103095
0.56575,-0.03841
0.566,-0.0595757
0.56625,-0.0398528
0.5665,0.0188314
0.56675,0.01126
0.567,0.0227649
0.56725,0.00182513
0.5675,0.0515486
0.56775,0.0168227
0.568,0.00532785
0.56825,0.00292717
0.5685,0.0125094
0.56875,0.0491998
0.569,0.0402468
0.56925,0.0370683
0.5695,0.066069
0.56975,0.0603144
0.57,0.0597772
0.57025,0.0635967
0.5705,0.0782372
0.57075,0.0331038
0.571,0.0442079
0.57125,0.0177473
0.5715,0.0521583
0.57175,0.00937481
0.572,0.0314923
0.57225,0.0418666
0.5725,0.052689
0.57275,-0.00967422
0.573,0.0571327
0.57325,0.0915265
0.5735,0.115166
0.57375,0.0751607
0.574,-0.00991882
0.57425,0.0817734
0.5745,0.0938363
0.57475,0.0440847
0.575,0.0924338
0.57525,0.0481326
0.5755,0.0530461
0.57575,0.0480655
0.576,0.0588808
0.57625,0.0685599
0.5765,0.0692402
0.57675,0.0587002
0.577,0.0229338
0.57725,0.0350182
0.5775,0.0276294
0.57775,0.0592045
0.578,0.0217712
0.57825,0.0462029
0.5785,0.0169164
0.57875,-0.0139905
0.579,-0.0126479
0.57925,-0.0238487
0.5795,-0.031723
0.57975,-0.068069
0.58,-0.0144873
0.58025,-0.0403757
0.5805,-0.12777
0.58075,-0.081083
0.581,-0.114217
0.58125,-0.112037
0.5815,-0.0257975
0.58175,-0.00453709
0.582,-0.0527571
0.58225,-0.0505161
0.5825,-0.0787083
0.58275,-0.020394
0.583,0.00444702
0.58325,-0.0311119
0.5835,0.00453091
0.58375,0.0170812
0.584,0.00894931
0.58425,0.0570032
0.5845,0.0277718
0.58475,0.0732273
0.585,0.0921087
0.58525,0.0612732
0.5855,0.0886046
0.58575,0.104453
0.586,0.0617123
0.58625,0.0619581
0.5865,0.0283884
0.58675,0.0528325
0.587,0.0636206
0.58725,0.067939
0.5875,0.0381935
0.58775,0.0388408
0.588,0.000392726
0.58825,0.0299455
0.5885,0.0198181
0.58875,0.0584859
0.589,0.0497756
0.58925,0.0892427
0.5895,0.0581498
0.58975,0.0557661
0.59,0.0083365
0.59025,0.0766964
0.5905,-0.00576779
0.59075,0.0149413
0.591,0.00810704
0.59125,0.0287024
0.5915,0.0144891
0.59175,0.0142237
0.592,0.0237512
0.59225,0.031002
0.5925,0.0436177
0.59275,0.0581503
0.593,0.0146082
0.59325,0.0533771
0.5935,-0.023855
0.59375,-0.0137288
0.594,0.0461827
0.59425,0.0658349
0.5945,-0.0405155
0.59475,-0.006752
0.595,-0.0287102
0.59525,0.0243512
0.5955,-0.0222022
0.59575,-0.0267492
0.596,-0.0786945
0.59625,-0.0720029
0.5965,-0.0227602
0.59675,-0.121413
0.597,-0.0956714
0.59725,-0.0795835
0.5975,-0.0239596
0.59775,-0.0646971
0.598,-0.0257159
0.59825,-0.0663687
0.5985,-0.0237335
0.59875,-0.0252387
0.599,-0.0463247
0.59925,-0.0531386
0.5995,-0.0207832
0.59975,-0.0179545
0.6,0.00360655
0.60025,0.0161954
0.6005,0.0125602
0.60075,0.0451219
0.601,0.0279025
0.60125,0.0605076
0.6015,0.0680325
0.60175,0.103907
0.602,0.0708795
0.60225,0.102587
0.6025,0.0626658
0.60275,0.0684488
0.603,0.117618
0.60325,0.121207
0.6035,0.0861626
0.60375,0.0846569
0.604,0.0652973
0.60425,0.0853448
0.6045,0.0321072
0.60475,-0.0106215
0.605,-0.0203161
0.60525,0.0104179
0.6055,-0.011087
0.60575,-0.00416479
0.606,-0.0269084
0.60625,0.0401735
0.6065,-0.0317977
0.60675,1.62E-03
0.607,0.0216786
0.60725,-0.0107235
0.6075,0.00357223
0.60775,-0.0144256
0.608,-0.0159182
0.60825,-0.00694453
0.6085,-0.0167939
0.60875,0.0069566
0.609,0.0155621
0.60925,-0.0203509
0.6095,0.0379256
0.60975,0.0317272
0.61,-0.0603696
0.61025,-0.0199544
0.6105,0.0164756
0.61075,-0.0725924
0.611,-0.0605207
0.61125,-0.0524522
0.6115,-0.0736408
0.61175,-0.00456596
0.612,-0.00875592
0.61225,-0.0646879
0.6125,-0.0423385
0.61275,-0.0499637
0.613,-0.0844051
0.61325,-0.072433
0.6135,-0.103795
0.61375,-0.095463
0.614,-0.0368294
0.61425,-0.055578
0.6145,-0.0910013
0.61475,-0.082677
0.615,-0.0165885
0.61525,-0.0274137
0.6155,-0.0068177
0.61575,-0.00495381
0.616,-0.00369842
0.61625,-0.0110933
0.6165,0.0101895
0.61675,0.0391274
0.617,0.0221908
0.61725,0.0170567
0.6175,0.01405
0.61775,0.106605
0.618,0.103781
0.61825,0.0771482
0.6185,0.0466985
0.61875,0.130313
0.619,0.0500019
0.61925,0.134122
0.6195,0.131197
0.61975,0.0804357
0.62,0.040683
0.62025,0.0875788
0.6205,0.07697
0.62075,0.0428735
0.621,-0.0148303
0.62125,0.0436843
0.6215,-0.00406279
0.62175,-0.00241416
0.622,-0.0167022
0.62225,-0.00390757
0.6225,-0.079164
0.62275,-0.0197469
0.623,-0.00727182
0.62325,-3.19E-02
0.6235,-0.0296328
0.62375,-0.0500545
0.624,-0.0517714
0.62425,-0.0569001
0.6245,-0.0793687
0.62475,-0.0494407
0.625,-5.62E-02
0.62525,-0.0634556
0.6255,-0.061994
0.62575,-0.0461574
0.626,-0.019155
0.62625,-0.0554694
0.6265,-0.00420231
0.62675,-0.0413983
0.627,-0.0443481
0.62725,-0.0130468
0.6275,0.0171876
0.62775,0.0399711
0.628,0.0228325
0.62825,-0.0594953
0.6285,-0.070209
0.62875,-0.0269824
0.629,-0.0573875
0.62925,-0.0590016
0.6295,-0.0460596
0.62975,-0.05422
0.63,-0.0444634
0.63025,-0.0688824
0.6305,-0.0516857
0.63075,-0.0213991
0.631,-0.0349822
0.63125,-0.0557339
0.6315,-0.0463119
0.63175,-0.0528586
0.632,-0.0684624
0.63225,-0.0234589
0.6325,-0.000735194
0.63275,0.00275818
0.633,0.032736
0.63325,0.0518795
0.6335,0.046802
0.63375,0.0675067
0.634,0.0398152
0.63425,0.0678207
0.6345,0.0851873
0.63475,0.072571
0.635,0.00487231
0.63525,0.11543
0.6355,0.0789083
0.63575,0.0777143
0.636,0.0358999
0.63625,0.0382309
0.6365,0.0323998
0.63675,0.0513183
0.637,0.016024
0.63725,0.02725
0.6375,-0.00606336
0.63775,-0.00954649
0.638,-0.0144565
0.63825,-0.0214366
0.6385,-0.0145034
0.63875,-0.0421798
0.639,-0.078264
0.63925,-0.0599218
0.6395,-0.0714984
0.63975,-0.0675015
0.64,-0.076232
0.64025,-0.0562928
0.6405,-0.058189
0.64075,-0.0685723
0.641,-0.0908722
0.64125,-0.101778
0.6415,-0.0929972
0.64175,-0.0554792
0.642,-0.0373863
0.64225,-0.0754464
0.6425,-0.0298194
0.64275,-0.0957467
0.643,-0.101301
0.64325,-0.00800907
0.6435,-0.0303939
0.64375,-0.0321885
0.644,-0.0342523
0.64425,-0.0231422
0.6445,0.0313437
0.64475,0.0205205
0.645,-0.0184094
0.64525,-0.000287157
0.6455,0.00297477
0.64575,-0.0198089
0.646,-0.0143949
0.64625,-0.0336024
0.6465,-0.0170519
0.64675,-0.0313228
0.647,0.00119382
0.64725,0.00892316
0.6475,0.00704943
0.64775,0.0174492
0.648,0.0328031
0.64825,-0.0626884
0.6485,0.0212711
0.64875,0.0170861
0.649,0.015943
0.64925,0.0473568
0.6495,-0.00327028
0.64975,-0.000279333
0.65,0.088922
0.65025,0.0356508
0.6505,0.0541792
0.65075,0.0855501
0.651,0.0252006
0.65125,0.00328283
0.6515,0.00453896
0.65175,0.0642156
0.652,0.0951775
0.65225,0.0778548
0.6525,0.0357113
0.65275,0.0421021
0.653,0.0647775
0.65325,0.0123708
0.6535,0.0237569
0.65375,-0.00144969
0.654,-0.0142866
0.65425,-0.019936
0.6545,-0.0209954
0.65475,-0.0376587
0.655,-0.0523112
0.65525,-0.0613439
0.6555,-0.0470768
0.65575,-0.0757674
0.656,-0.0933698
0.65625,-0.14658
0.6565,-0.143539
0.65675,-0.0246394
0.657,-0.0778885
0.65725,-0.0780821
0.6575,-0.110594
0.65775,-0.0705676
0.658,-0.0572254
0.65825,-0.0650941
0.6585,-0.0660267
0.65875,-0.0324368
0.659,-0.0579249
0.65925,-0.0575151
0.6595,-0.0388376
0.65975,-0.00715517
0.66,0.0236955
0.66025,0.0172483
0.6605,-0.0377326
0.66075,0.0406574
0.661,0.0308842
0.66125,0.0341742
0.6615,0.00302022
0.66175,-0.000385662
0.662,0.0157953
0.66225,0.00555914
0.6625,0.0100613
0.66275,0.0166289
0.663,0.0259054
0.66325,0.00433218
0.6635,0.0217862
0.66375,0.00102684
0.664,-0.0485998
0.66425,-0.0709241
0.6645,-0.0146461
0.66475,0.012862
0.665,0.0657634
0.66525,0.0229915
0.6655,-0.0208374
0.66575,0.00853015
0.666,-0.0332002
0.66625,0.0415695
0.6665,0.0633722
0.66675,0.0807632
0.667,0.0455169
0.66725,0.0126561
0.6675,0.0773023
0.66775,0.0580039
0.668,0.0890728
0.66825,0.0547816
0.6685,0.0711626
0.66875,0.0828815
0.669,0.0182554
0.66925,0.0174914
0.6695,0.0350316
0.66975,0.0151834
0.67,0.00924221
0.67025,-0.0147243
0.6705,-0.00319793
0.67075,-0.0182317
0.671,-0.0135688
0.67125,-0.0501544
0.6715,-0.0839149
0.67175,-0.0811509
0.672,-0.117684
0.67225,-0.141647
0.6725,-0.138766
0.67275,-0.0966683
0.673,-0.0547822
0.67325,-0.0984075
0.6735,-0.100562
0.67375,-0.102967
0.674,-0.0588078
0.67425,-0.0473767
0.6745,-0.0437129
0.67475,-0.0415669
0.675,-0.0130688
0.67525,-0.0475431
0.6755,-0.0369772
0.67575,0.0136479
0.676,0.0190562
0.67625,0.0354024
0.6765,0.032519
0.67675,0.0669332
0.677,0.00133563
0.67725,0.036796
0.6775,0.0747798
0.67775,0.037655
0.678,0.0588397
0.67825,0.0299423
0.6785,0.046464
0.67875,0.0304749
0.679,0.030628
0.67925,0.00596366
0.6795,-0.014409
0.67975,-0.0195499
0.68,0.0742377
0.68025,0.0525527
0.6805,0.00206181
0.68075,0.00324447
0.681,0.0190576
0.68125,0.0144673
0.6815,0.0267199
0.68175,0.0293764
0.682,0.00149739
0.68225,0.00933157
0.6825,0.0385865
0.68275,0.0494955
0.683,0.0441797
0.68325,0.0461844
0.6835,0.0425099
0.68375,0.0230064
0.684,0.0467269
0.68425,0.0401355
0.6845,0.0353711
0.68475,0.0512631
0.685,0.0537443
0.68525,0.0387637
0.6855,0.0454607
0.68575,0.0124701
0.686,0.0271116
0.68625,-0.0399505
0.6865,-0.0469521
0.68675,-0.0206815
0.687,0.0103284
0.68725,-0.0681399
0.6875,-0.0802733
0.68775,-0.0604258
0.688,-0.110455
0.68825,-0.0625353
0.6885,-0.134674
0.68875,-0.0847346
0.689,-0.0974066
0.68925,-0.11125
0.6895,-0.125954
0.68975,-0.0825488
0.69,-0.0517752
0.69025,-0.0573168
0.6905,-0.0510093
0.69075,-0.0653318
0.691,-0.0461703
0.69125,-0.0563403
0.6915,-0.0125883
0.69175,-0.013264
0.692,-0.00931947
0.69225,0.027327
0.6925,0.0268578
0.69275,0.0123561
0.693,0.0570319
0.69325,0.035861
0.6935,0.0683629
0.69375,0.064812
0.694,0.0822811
0.69425,0.0699104
0.6945,0.0709896
0.69475,0.0405917
0.695,0.0757699
0.69525,0.0441432
0.6955,0.0886114
0.69575,0.0665667
0.696,0.067539
0.69625,0.0377926
0.6965,-0.00118274
0.69675,0.0285227
0.697,0.0374469
0.69725,0.0385655
0.6975,0.0506352
0.69775,-0.00930081
0.698,0.0218469
0.69825,-0.00614234
0.6985,-0.00564756
0.69875,-0.0293644
0.699,0.0158856
0.69925,0.0187741
0.6995,0.00357854
0.69975,0.0039291
0.7,0.00139535
0.70025,-0.000712625
0.7005,0.00653869
0.70075,-0.00449652
0.701,0.00506806
0.70125,-0.0167883
0.7015,-0.0322974
0.70175,0.0486692
0.702,0.0400076
0.70225,-0.0289411
0.7025,-0.0483759
0.70275,0.00473057
0.703,-0.0577997
0.70325,-0.0112238
0.7035,-0.0567388
0.70375,-0.0393903
0.704,-0.0687094
0.70425,-0.0747257
0.7045,-0.0199616
0.70475,-0.107378
0.705,-0.10654
0.70525,-0.114887
0.7055,-0.115366
0.70575,-0.0705741
0.706,-0.0123721
0.70625,-0.1045
0.7065,-0.0358417
0.70675,-0.0625487
0.707,-0.0215879
0.70725,-0.0317257
0.7075,-0.013089
0.70775,-0.0146086
0.708,-0.00229654
0.70825,0.0133043
0.7085,0.0212366
0.70875,0.0356494
0.709,0.045782
0.70925,0.0946537
0.7095,0.103362
0.70975,0.085695
0.71,0.0880425
0.71025,0.143814
0.7105,0.0601674
0.71075,0.0882759
0.711,0.125602
0.71125,0.110831
0.7115,0.126918
0.71175,0.0535469
0.712,0.0471384
0.71225,0.0533661
0.7125,0.00628769
0.71275,0.0153127
0.713,0.0370589
0.71325,0.00478631
0.7135,0.0292086
0.71375,-0.000279198
0.714,0.0371325
0.71425,-0.0227562
0.7145,-0.0144341
0.71475,-0.0628688
0.715,-0.0024411
0.71525,-0.0304109
0.7155,-0.0508496
0.71575,-0.0342003
0.716,-0.0315455
0.71625,-0.0192417
0.7165,-0.0198212
0.71675,-0.00438726
0.717,-0.0281545
0.71725,-0.00917558
0.7175,-0.00469471
0.71775,0.0435904
0.718,0.0285855
0.71825,-0.020793
0.7185,-0.0284421
0.71875,0.0157999
0.719,0.0367302
0.71925,-0.0564589
0.7195,-0.0613944
0.71975,0.00545537
0.72,-0.0270803
0.72025,-0.0180617
0.7205,-0.0305214
0.72075,-0.0586299
0.721,-0.0734564
0.72125,-0.0162529
0.7215,-0.0446143
0.72175,-0.0757082
0.722,-0.0482659
0.72225,-0.0380919
0.7225,-0.042871
0.72275,-0.0735741
0.723,-0.0664316
0.72325,-0.0666671
0.7235,-0.0302154
0.72375,0.00490108
0.724,-0.0192855
0.72425,-0.0129714
0.7245,0.0180577
0.72475,0.00583406
0.725,0.0462053
0.72525,0.0684965
0.7255,0.0578751
0.72575,0.0744726
0.726,0.0927695
0.72625,0.0525159
0.7265,0.164057
0.72675,0.130289
0.727,0.159635
0.72725,0.153196
0.7275,0.123972
0.72775,0.058098
0.728,0.0808604
0.72825,0.0841397
0.7285,0.0493533
0.72875,0.0415384
0.729,0.0463289
0.72925,0.0575133
0.7295,0.00965439
0.72975,-0.0267327
0.73,0.00468372
0.73025,-0.0067965
0.7305,-0.0305576
0.73075,-0.00265582
0.731,-0.0179517
0.73125,-0.00747672
0.7315,-0.0222514
0.73175,-0.0544018
0.732,-0.0562893
0.73225,-0.040007
0.7325,-0.081479
0.73275,-0.0167839
0.733,-0.0370448
0.73325,-0.0164442
0.7335,-0.0184336
0.73375,-0.0656963
0.734,-0.0833006
0.73425,-0.0303862
0.7345,0.00275657
0.73475,-0.024253
0.735,-0.0136448
0.73525,-0.0280988
0.7355,-0.0425548
0.73575,-0.0152191
0.736,0.00887555
0.73625,0.00505934
0.7365,0.0152701
0.73675,0.0262666
0.737,-0.0117096
0.73725,-0.0180329
0.7375,-0.0206659
0.73775,-0.0248343
0.738,-0.0118599
0.73825,-0.0144479
0.7385,-0.00542216
0.73875,-0.0361631
0.739,-0.0471003
0.73925,-0.034303
0.7395,-0.0333345
0.73975,0.0142688
0.74,0.0494027
0.74025,0.0269405
0.7405,-0.00447123
0.74075,0.00141227
0.741,0.0487069
0.74125,0.0474703
0.7415,0.0328814
0.74175,0.0604657
0.742,0.113782
0.74225,0.0924477
0.7425,0.0488409
0.74275,0.0841184
0.743,0.0462953
0.74325,0.133591
0.7435,0.0679274
0.74375,0.0838656
0.744,0.0669066
0.74425,0.105264
0.7445,0.042345
0.74475,0.063586
0.745,0.0239174
0.74525,0.0388506
0.7455,0.0217554
0.74575,0.00801239
0.746,0.00477654
0.74625,-0.0217519
0.7465,-0.00905145
0.74675,-0.00305145
0.747,-0.0303873
0.74725,-0.0753729
0.7475,-0.0690854
0.74775,-0.0442164
0.748,-0.0681632
0.74825,-0.00340195
0.7485,-0.0307619
0.74875,-0.0522844
0.749,-0.10945
0.74925,-0.0978146
0.7495,-0.0329797
0.74975,-0.0279337
0.75,-0.0147982
0.75025,-0.0138941
0.7505,-0.0270197
0.75075,-0.00647765
0.751,-0.00919852
0.75125,-0.0014686
0.7515,-0.0148098
0.75175,0.02027
0.752,0.00609573
0.75225,-0.0411377
0.7525,-0.0359644
0.75275,-0.00514229
0.753,0.00108342
0.75325,-0.0171162
0.7535,0.00564116
0.75375,0.00755154
0.754,0.00934795
0.75425,0.013004
0.7545,-0.00824391
0.75475,0.00728581
0.755,-0.000553351
0.75525,-0.0350175
0.7555,0.0504755
0.75575,-0.00109717
0.756,0.0333422
0.75625,-0.0122237
0.7565,0.0455552
0.75675,0.0348376
0.757,-0.0195936
0.75725,0.00257873
0.7575,-0.00195659
0.75775,0.0650258
0.758,0.0688413
0.75825,0.0137962
0.7585,0.0341809
0.75875,0.072598
0.759,0.117157
0.75925,0.0919554
0.7595,0.0691358
0.75975,0.0794851
0.76,0.0637047
0.76025,0.080247
0.7605,0.0398877
0.76075,0.0866362
0.761,0.0445581
0.76125,0.0168253
0.7615,0.0127684
0.76175,0.00957957
0.762,0.0127292
0.76225,-0.000359467
0.7625,-0.00333177
0.76275,-0.0162663
0.763,-0.0430092
0.76325,-0.0287917
0.7635,-0.0784043
0.76375,-0.111413
0.764,-0.0289884
0.76425,-0.0888557
0.7645,-0.114728
0.76475,-0.09384
0.765,-0.0447393
0.76525,-0.0357034
0.7655,-0.0665336
0.76575,-0.135208
0.766,-0.0691846
0.76625,-0.0888698
0.7665,-0.0615337
0.76675,-0.0430531
0.767,-0.053473
0.76725,0.00846065
0.7675,0.0258135
0.76775,0.00336583
0.768,-0.020436
0.76825,0.0489572
0.7685,0.0673469
0.76875,0.0187986
0.769,0.00698396
0.76925,0.00993727
0.7695,0.0257282
0.76975,0.0268556
0.77,0.024081
0.77025,0.00702139
0.7705,0.0432061
0.77075,0.0535788
0.771,0.0556395
0.77125,0.0262209
0.7715,0.0436346
0.77175,0.0418318
0.772,0.0249522
0.77225,-0.0278426
0.7725,-0.010389
0.77275,0.0167081
0.773,0.0318151
0.77325,0.0027825
0.7735,0.0669382
0.77375,-0.0142632
0.774,-0.0446829
0.77425,0.0659492
0.7745,0.0469584
0.77475,0.0389919
0.775,0.0140483
0.77525,0.0377649
0.7755,0.0461707
0.77575,0.0482947
0.776,0.0430087
0.77625,0.0613277
0.7765,0.0323333
0.77675,0.0428553
0.777,0.00997354
0.77725,0.0520739
0.7775,0.039683
0.77775,0.0368583
0.778,0.00729928
0.77825,-0.00363404
0.7785,-0.0297189
0.77875,-0.00804354
0.779,-0.044963
0.77925,-0.0465134
0.7795,-0.0477311
0.77975,-0.0549544
0.78,-0.0229468
0.78025,-0.061766
0.7805,-0.0267781
0.78075,-0.126609
0.781,-0.0644558
0.78125,-0.12881
0.7815,-0.0894462
0.78175,-0.0267477
0.782,-0.0400545
0.78225,-0.0399868
0.7825,-0.0764464
0.78275,-0.0632537
0.783,-0.0571414
0.78325,-0.0499319
0.7835,-0.00710322
0.78375,0.00852257
0.784,0.0195742
0.78425,0.00591241
0.7845,-0.00111674
0.78475,0.0523519
0.785,0.0358214
0.78525,0.0954716
0.7855,0.0671316
0.78575,4.47E-02
0.786,0.0345443
0.78625,0.0557355
0.7865,0.0545444
0.78675,0.0213297
0.787,0.0412746
0.78725,0.0370562
0.7875,0.061824
0.78775,0.0542079
0.788,0.0755947
0.78825,0.0776117
0.7885,-0.00590467
0.78875,0.0427492
0.789,0.000960934
0.78925,0.0206328
0.7895,-0.00362171
0.78975,0.0337388
0.79,-0.0552798
0.79025,0.0324714
0.7905,-0.025909
0.79075,0.0319103
0.791,0.000658201
0.79125,5.46E-03
0.7915,0.00982404
0.79175,0.0194043
0.792,0.00888885
0.79225,0.00968485
0.7925,0.0305349
0.79275,-0.00208543
0.793,-2.87E-03
0.79325,0.0125806
0.7935,0.0172476
0.79375,5.90E-02
0.794,0.00907906
0.79425,-0.0269676
0.7945,0.030862
0.79475,-0.0365794
0.795,-0.00985963
0.79525,-0.0823808
0.7955,-0.0356585
0.79575,-0.0450544
0.796,-0.0968369
0.79625,-0.116792
0.7965,-0.0557001
0.79675,-0.0699362
0.797,-0.0982327
0.79725,-0.135011
0.7975,-0.11175
0.79775,-0.0496896
0.798,-0.13303
0.79825,-0.0933706
0.7985,-0.0718637
0.79875,-0.041266
0.799,-0.0059881
0.79925,-0.0545835
0.7995,-0.0227063
0.79975,-0.00866328
0.8,-0.000685857
0.80025,0.0050921
0.8005,0.0193412
0.80075,0.0177916
0.801,0.0488977
0.80125,0.0876292
0.8015,0.0172408
0.80175,0.0806645
0.802,0.0387583
0.80225,0.0430789
0.8025,0.0623247
0.80275,0.0939446
0.803,0.116109
0.80325,0.0903977
0.8035,0.0631794
0.80375,0.0993476
0.804,0.0163215
0.80425,0.0951715
0.8045,0.0770137
0.80475,-0.0140327
0.805,0.0536112
0.80525,0.00978883
0.8055,-0.0204834
0.80575,-0.0346589
0.806,0.0280814
0.80625,3.83E-02
0.8065,-0.0201159
0.80675,-0.00163668
0.807,0.00488181
0.80725,-0.0520171
0.8075,-0.0106152
0.80775,-0.0283071
0.808,-0.0166924
0.80825,-0.0227896
0.8085,-0.0187798
0.80875,-0.0030366
0.809,0.0231026
0.80925,-0.0251843
0.8095,0.043637
0.80975,0.00268124
0.81,0.00265608
0.81025,-0.0619904
0.8105,0.0338812
0.81075,-0.0398197
0.811,-0.0346586
0.81125,-5.15E-02
0.8115,0.00439245
0.81175,-0.0737213
0.812,-0.053952
0.81225,-0.0331933
0.8125,-5.09E-02
0.81275,-0.0864313
0.813,-0.01305
0.81325,-0.052676
0.8135,-0.0412313
0.81375,-0.0344159
0.814,-0.0568089
0.81425,-0.0448395
0.8145,-0.0582106
0.81475,-0.0107135
0.815,-0.0643218
0.81525,-0.0639499
0.8155,-0.0395121
0.81575,-0.00611216
0.816,-0.00388584
0.81625,0.0213101
0.8165,0.00433021
0.81675,0.0515752
0.817,0.0623407
0.81725,0.0767895
0.8175,0.0581824
0.81775,0.0968952
0.818,0.0231041
0.81825,0.0711612
0.8185,0.00772433
0.81875,0.117811
0.819,0.132723
0.81925,0.0956428
0.8195,0.0511663
0.81975,0.0372332
0.82,0.134194
0.82025,0.0758359
0.8205,0.0522309
0.82075,0.00949506
0.821,0.0192067
0.82125,0.0411025
0.8215,-0.0099352
0.82175,-0.00549248
0.822,-0.0338474
0.82225,-0.0141196
0.8225,-0.0375231
0.82275,-0.0286961
0.823,-0.0304679
0.82325,-0.0727241
0.8235,-0.0428391
0.82375,-0.0398373
0.824,-0.012359
0.82425,-0.0690083
0.8245,-0.0203792
0.82475,-0.0520075
0.825,-0.0259907
0.82525,-0.0705031
0.8255,-0.00849567
0.82575,-0.0536779
0.826,-0.0206283
0.82625,-0.0226652
0.8265,-0.0267733
0.82675,-0.0650199
0.827,-0.0374901
0.82725,0.00836258
0.8275,-0.0110962
0.82775,0.00209881
0.828,-0.0205388
0.82825,0.0218672
0.8285,-0.0522816
0.82875,-0.00786541
0.829,-0.00942531
0.82925,-0.0354682
0.8295,-0.0512674
0.82975,-0.0239961
0.83,-0.0272993
0.83025,-0.0678738
0.8305,-0.0517842
0.83075,-0.0326777
0.831,-0.0407185
0.83125,-0.0466956
0.8315,-0.0520605
0.83175,-0.0305954
0.832,-0.0314419
0.83225,0.00142808
0.8325,0.0305261
0.83275,0.0246353
0.833,0.00858707
0.83325,0.0284094
0.8335,0.0565204
0.83375,0.0628575
0.834,0.0149419
0.83425,0.0483676
0.8345,0.113207
0.83475,0.0367286
0.835,0.0887447
0.83525,0.0610211
0.8355,0.111378
0.83575,0.0154156
0.836,0.102157
0.83625,0.0581424
0.8365,0.062679
0.83675,0.0662429
0.837,0.0607684
0.83725,0.0131704
0.8375,0.00435585
0.83775,0.00433532
0.838,-0.0134832
0.83825,-0.00108804
0.8385,-0.00927884
0.83875,-0.0655655
0.839,-0.0325592
0.83925,-0.0368717
0.8395,-0.0515056
0.83975,-0.054933
0.84,-0.062099
0.84025,-0.0604421
0.8405,-0.0836967
0.84075,-0.0209348
0.841,-0.0707989
0.84125,-0.0575599
0.8415,-0.0232995
0.84175,-0.0322153
0.842,-0.0645757
0.84225,-0.0272211
0.8425,-0.0443245
0.84275,-0.0326083
0.843,-0.058948
0.84325,-0.068436
0.8435,-0.0715654
0.84375,0.0458409
0.844,0.0332301
0.84425,-0.000137148
0.8445,0.0105371
0.84475,0.0103814
0.845,-0.0234766
0.84525,0.00180468
0.8455,0.00690888
0.84575,-0.00802468
0.846,-0.00673297
0.84625,-0.00713927
0.8465,-0.000282048
0.84675,-0.040194
0.847,-0.00790084
0.84725,-0.00283442
0.8475,-0.0535806
0.84775,-0.0389461
0.848,-0.0319772
0.84825,0.00637643
0.8485,-0.0204021
0.84875,0.0298145
0.849,-0.00121416
0.84925,0.0398499
0.8495,0.0559291
0.84975,0.0431146
0.85,0.00197434
0.85025,0.0991698
0.8505,0.105798
0.85075,0.0393748
0.851,0.0986077
0.85125,0.127089
0.8515,0.089661
0.85175,0.0641813
0.852,0.0511123
0.85225,0.0858411
0.8525,0.0580771
0.85275,0.0896598
0.853,0.02175
0.85325,0.0308515
0.8535,0.0202846
0.85375,0.0149197
0.854,0.00153891
0.85425,-0.0153544
0.8545,-0.0137416
0.85475,-0.0456235
0.855,-0.0251441
0.85525,-0.0262886
0.8555,-0.0171942
0.85575,-0.112752
0.856,-0.112748
0.85625,-0.104035
0.8565,-0.0682696
0.85675,-1.31E-01
0.857,-0.103335
0.85725,-0.0726391
0.8575,-0.099878
0.85775,-0.00866277
0.858,-0.0184908
0.85825,-0.0335872
0.8585,-0.0831824
0.85875,-0.0459335
0.859,-0.0172061
0.85925,-0.0280336
0.8595,-0.0319084
0.85975,0.0147532
0.86,0.0542001
0.86025,0.0228476
0.8605,0.0450087
0.86075,-0.000168313
0.861,0.037465
0.86125,0.0155263
0.8615,0.0326184
0.86175,0.03335
0.862,0.035716
0.86225,0.0095196
0.8625,0.0236459
0.86275,0.0217565
0.863,0.0345661
0.86325,0.0129337
0.8635,-0.00785271
0.86375,0.0369041
0.864,-0.0379484
0.86425,0.00897638
0.8645,0.0196161
0.86475,-0.0451885
0.865,-0.0233019
0.86525,0.0480272
0.8655,0.028399
0.86575,0.0391958
0.866,-0.0116271
0.86625,0.0299855
0.8665,0.0138601
0.86675,0.00623838
0.867,0.0679274
0.86725,0.0130763
0.8675,0.0565728
0.86775,0.0705049
0.868,0.0583526
0.86825,0.0499339
0.8685,0.0541031
0.86875,0.014103
0.869,0.0651572
0.86925,0.00142228
0.8695,0.0513933
0.86975,-0.00179084
0.87,0.00135673
0.87025,0.0273233
0.8705,-0.0315006
0.87075,-0.010529
0.871,-0.0367651
0.87125,-0.0567839
0.8715,-0.0770493
0.87175,-0.0167018
0.872,-4.45E-02
0.87225,-0.0817584
0.8725,-0.0161844
0.87275,-0.0804443
0.873,-0.136217
0.87325,-0.0969219
0.8735,-0.103553
0.87375,-0.128468
0.874,-0.0304931
0.87425,-0.0441756
0.8745,-0.0692059
0.87475,-0.0291084
0.875,-0.0228236
0.87525,-0.0392343
0.8755,-0.0459649
0.87575,0.013937
0.876,0.0112305
0.87625,0.0341194
0.8765,0.0496179
0.87675,0.0686068
0.877,0.063842
0.87725,0.0464682
0.8775,0.0622976
0.87775,0.0203226
0.878,0.0639087
0.87825,0.0692764
0.8785,0.0479463
0.87875,0.0280583
0.879,0.0209833
0.87925,0.027385
0.8795,0.0393638
0.87975,-0.00343979
0.88,0.0148385
0.88025,0.00728367
0.8805,-0.0235128
0.88075,0.0335903
0.881,0.0227202
0.88125,0.00598649
0.8815,-0.0109898
0.88175,-0.0352932
0.882,0.0519743
0.88225,0.0293428
0.8825,0.0370878
0.88275,0.000380673
0.883,0.0538828
0.88325,0.0370104
0.8835,0.0161044
0.88375,0.0193336
0.884,0.0160439
0.88425,0.0135425
0.8845,0.0478346
0.88475,0.0315491
0.885,0.0232324
0.88525,0.0598819
0.8855,-0.000348799
0.88575,0.0410224
0.886,0.00775985
0.88625,-0.00506469
0.8865,-0.00346367
0.88675,0.0166631
0.887,-0.0182676
0.88725,-0.0131357
0.8875,-0.0748587
0.88775,-0.103726
0.888,-0.0165921
0.88825,-0.0631568
0.8885,-0.0868396
0.88875,-0.120177
0.889,-0.128867
0.88925,-0.145629
0.8895,-0.0715954
0.88975,-0.0423746
0.89,-0.0748027
0.89025,-0.130351
0.8905,-0.0831638
0.89075,-0.0759432
0.891,-0.0276394
0.89125,-0.027148
0.8915,-0.0223204
0.89175,-0.017158
0.892,-0.00292909
0.89225,0.0211655
0.8925,0.0340469
0.89275,0.0263665
0.893,0.0502331
0.89325,0.0420468
0.8935,0.107375
0.89375,0.100459
0.894,0.0948171
0.89425,0.0578335
0.8945,0.0449562
0.89475,0.135322
0.895,0.0188746
0.89525,0.0781365
0.8955,0.0526426
0.89575,0.0863706
0.896,0.0135438
0.89625,0.0878279
0.8965,0.0324314
0.89675,-0.0134502
0.897,0.0362111
0.89725,-0.0239792
0.8975,-0.00886137
0.89775,0.0017264
0.898,0.0424174
0.89825,-0.00162213
0.8985,0.00439882
0.89875,-0.0283181
0.899,-0.0197787
0.89925,-0.0290594
0.8995,0.000609926
0.89975,-0.0107435
0.9,9.36E-05
0.90025,0.00569577
0.9005,0.00635374
0.90075,0.0217008
0.901,0.000619852
0.90125,0.0368293
0.9015,-0.0390755
0.90175,-0.0183877
0.902,0.0509825
0.90225,0.0127376
0.9025,-0.0440598
0.90275,-0.0279374
0.903,-0.0371251
0.90325,-0.029502
0.9035,-0.0866906
0.90375,-0.0573613
0.904,-0.0927571
0.90425,-0.0572871
0.9045,-0.0988763
0.90475,-0.101492
0.905,-0.0519752
0.90525,-0.0925524
0.9055,-0.0897955
0.90575,-0.118313
0.906,-0.111784
0.90625,-0.0405622
0.9065,-0.0939886
0.90675,-0.0127295
0.907,-0.0313258
0.90725,-0.0177215
0.9075,-0.0238699
0.90775,-0.018807
0.908,-0.0153635
0.90825,-0.00204393
0.9085,0.0195656
0.90875,0.0407848
0.909,0.0314692
0.90925,0.0916264
0.9095,0.0343913
0.90975,0.105309
0.91,0.128152
0.91025,0.139479
0.9105,0.131872
0.91075,0.0577831
0.911,0.116378
0.91125,0.090943
0.9115,0.0803717
0.91175,0.107881
0.912,0.0592944
0.91225,0.0536303
0.9125,0.0671958
0.91275,0.0492313
0.913,0.0347593
0.91325,-0.0180674
0.9135,-0.040541
0.91375,0.0217994
0.914,0.00279123
0.91425,-0.00758685
0.9145,-0.0229983
0.91475,-0.0187075
0.915,-0.0689864
0.91525,-0.0106968
0.9155,-0.0427508
0.91575,-0.0243703
0.916,-0.0144552
0.91625,-0.0285639
0.9165,-0.0475228
0.91675,-0.0463077
0.917,-3.09E-02
0.91725,-0.0145974
0.9175,0.000623414
0.91775,-0.0339793
0.918,0.0162784
0.91825,-0.0395163
0.9185,-0.0332884
0.91875,0.0268861
0.919,-0.0241687
0.91925,0.0431773
0.9195,0.0492029
0.91975,-0.0715144
0.92,-0.0599065
0.92025,0.0168653
0.9205,0.00116917
0.92075,-0.00630475
0.921,-0.0251353
0.92125,-0.0486657
0.9215,-0.0702084
0.92175,-0.0465265
0.922,-0.0894678
0.92225,-0.0658259
0.9225,-0.0636518
0.92275,-0.0339534
0.923,-0.0649969
0.92325,-0.0365394
0.9235,-0.00206678
0.92375,0.00613028
0.924,-0.00888029
0.92425,0.0202634
0.9245,0.024192
0.92475,0.0252732
0.925,0.0389324
0.92525,0.0734421
0.9255,0.0272296
0.92575,0.0545221
0.926,0.0712251
0.92625,0.0369658
0.9265,0.100592
0.92675,0.0834677
0.927,0.111587
0.92725,0.068875
0.9275,0.140915
0.92775,0.0679239
0.928,0.139541
0.92825,0.0986052
0.9285,0.0200406
0.92875,0.064913
0.929,0.0650946
0.92925,0.0554932
0.9295,0.0251321
0.92975,-0.00347939
0.93,-2.64E-06
0.93025,-0.0351813
0.9305,-0.0447555
0.93075,-0.0605179
0.931,-0.0471902
0.93125,-0.0911779
0.9315,-0.0439365
0.93175,-0.0733079
0.932,-0.0740503
0.93225,-0.016882
0.9325,-0.0595835
0.93275,-0.0143825
0.933,-0.0541583
0.93325,-0.0101283
0.9335,-0.000154109
0.93375,-0.0438082
0.934,-0.0904694
0.93425,-0.0274289
0.9345,-0.00727733
0.93475,-0.0127918
0.935,0.0366555
0.93525,0.00892292
0.9355,-0.0334315
0.93575,-0.00965705
0.936,-0.0795913
0.93625,0.0137601
0.9365,-0.00845813
0.93675,-0.0259243
0.937,-0.0292235
0.93725,0.00260485
0.9375,-0.0369329
0.93775,-0.0240869
0.938,-0.0161471
0.93825,-0.0392687
0.9385,-0.0119864
0.93875,-0.0503465
0.939,0.00045268
0.93925,-0.0372073
0.9395,-0.0628242
0.93975,-0.0115066
0.94,0.012511
0.94025,0.0170954
0.9405,0.0388809
0.94075,0.0419487
0.941,0.0256826
0.94125,0.00230802
0.9415,0.07439
0.94175,0.0891085
0.942,0.0211087
0.94225,0.103216
0.9425,0.0433231
0.94275,0.138627
0.943,0.0490347
0.94325,0.101749
0.9435,0.117878
0.94375,0.0543286
0.944,0.0930121
0.94425,0.0449445
0.9445,0.087116
0.94475,0.0296405
0.945,0.0424099
0.94525,0.0374062
0.9455,0.0289007
0.94575,0.0135087
0.946,0.00237278
0.94625,-0.0127752
0.9465,-0.0278865
0.94675,-0.0302623
0.947,-0.0259855
0.94725,-0.0249861
0.9475,-0.0669076
0.94775,-0.0657203
0.948,-0.106909
0.94825,-0.13213
0.9485,-0.0848067
0.94875,-0.101254
0.949,-0.0406205
0.94925,-0.091157
0.9495,-0.0544706
0.94975,-0.0939457
0.95,-0.0845232
0.95025,-0.0799218
0.9505,-0.0385374
0.95075,-0.0662567
0.951,0.0272829
0.95125,0.00430517
0.9515,0.00502166
0.95175,-0.0278197
0.952,-0.0356395
0.95225,-0.0525631
0.9525,0.00692767
0.95275,0.00290496
0.953,-0.024927
0.95325,4.73E-03
0.9535,0.0102107
0.95375,0.0175499
0.954,0.00179005
0.95425,0.00068019
0.9545,0.0115585
0.95475,0.00104084
0.955,-0.00599842
0.95525,-0.0410768
0.9555,-0.0485109
0.95575,0.0122964
0.956,-0.044979
0.95625,-0.0462507
0.9565,0.0531233
0.95675,0.0173168
0.957,0.00581888
0.95725,0.0244027
0.9575,-0.00434077
0.95775,-0.011482
0.958,0.0363389
0.95825,0.0795361
0.9585,0.0309651
0.95875,0.0217724
0.959,0.043073
0.95925,0.0147698
0.9595,0.0837251
0.95975,0.0447739
0.96,0.0759338
0.96025,0.0450002
0.9605,0.022416
0.96075,0.0415024
0.961,0.0250425
0.96125,0.0178923
0.9615,0.0311464
0.96175,0.0229029
0.962,-0.0126322
0.96225,0.000114213
0.9625,-0.0128511
0.96275,-0.0541224
0.963,-0.0382504
0.96325,-0.082999
0.9635,-0.0587988
0.96375,-0.0346329
0.964,-0.0617614
0.96425,-0.116601
0.9645,-0.0170695
0.96475,-0.0828561
0.965,-0.0759373
0.96525,-0.0505465
0.9655,-1.79E-02
0.96575,-0.0652793
0.966,-0.0805151
0.96625,-0.0468784
0.9665,-0.0586873
0.96675,-0.0497325
0.967,-0.0645071
0.96725,0.00463748
0.9675,0.0059538
0.96775,-0.00498678
0.968,0.0262968
0.96825,0.00172133
0.9685,0.0363248
0.96875,0.0381615
0.969,0.0263366
0.96925,0.00766429
0.9695,0.0223556
0.96975,0.0371307
0.97,0.0620992
0.97025,0.0550719
0.9705,0.0474229
0.97075,0.0280866
0.971,0.037509
0.97125,-0.00433284
0.9715,0.00843822
0.97175,0.0315438
0.972,0.0109544
0.97225,-0.00680405
0.9725,-0.0233872
0.97275,0.0442405
0.973,-0.018606
0.97325,0.0386053
0.9735,-0.0330709
0.97375,0.0526167
0.974,0.00587228
0.97425,-0.0215435
0.9745,0.0111123
0.97475,0.00977248
0.975,0.0166413
0.97525,0.0497304
0.9755,0.0218321
0.97575,0.0805849
0.976,0.0437429
0.97625,0.0651803
0.9765,0.0681819
0.97675,0.016005
0.977,0.0359843
0.97725,0.0607752
0.9775,0.0114894
0.97775,0.00428483
0.978,0.0236975
0.97825,0.017423
0.9785,0.0253111
0.97875,-0.0367042
0.979,-0.0305366
0.97925,-0.0681774
0.9795,-0.026541
0.97975,-0.0610989
0.98,-0.022384
0.98025,-0.032956
0.9805,-0.0427245
0.98075,-0.0773727
0.981,-0.0689645
0.98125,-0.0771724
0.9815,-0.105402
0.98175,-0.0608661
0.982,-0.0564923
0.98225,-0.0384443
0.9825,-0.0761326
0.98275,-0.00854421
0.983,-0.00863023
0.98325,-0.0406794
0.9835,-0.00297595
0.98375,0.0123668
0.984,0.0178851
0.98425,0.0220206
0.9845,0.049819
0.98475,0.0586769
0.985,0.0564074
0.98525,0.0580679
0.9855,0.0845654
0.98575,0.0595024
0.986,0.0666656
0.98625,0.0677434
0.9865,0.0674701
0.98675,0.0293473
0.987,0.056925
0.98725,0.0699287
0.9875,0.0461948
0.98775,0.0786853
0.988,0.0104738
0.98825,-0.0239444
0.9885,0.0334966
0.98875,0.077645
0.989,0.0249765
0.98925,0.0469006
0.9895,-0.00354885
0.98975,0.0230691
0.99,0.0289477
0.99025,0.0437937
0.9905,0.00368491
0.99075,0.0336078
0.991,0.00958102
0.99125,0.046281
0.9915,0.0305977
0.99175,0.0200739
0.992,0.0351322
0.99225,0.0306071
0.9925,0.0547162
0.99275,0.0593714
0.993,0.0299676
0.99325,1.20E-02
0.9935,0.0876578
0.99375,0.023397
0.994,0.0634983
0.99425,0.0503674
0.9945,0.0275138
0.99475,0.026215
0.995,-0.0262523
0.99525,8.91E-05
0.9955,0.00107416
0.99575,-0.000975386
0.996,-0.0201261
0.99625,-0.0473149
0.9965,-0.051788
0.99675,-0.00602011
0.997,-0.0459255
0.99725,-0.0297363
0.9975,-0.0226957
0.99775,-0.0890539
0.998,-0.0507618
0.99825,-0.0859015
0.9985,-0.0480816
0.99875,-0.0177471
0.999,-0.0052989
0.99925,-0.0268261
0.9995,-0.0115113
0.99975,0.00974788
1,0.0266701
1.00025,0.0390587
1.0005,0.0495355
1.00075,0.0632434
1.001,0.0749424
1.00125,0.123461
1.0015,0.0609532
1.00175,0.107737
1.002,0.0882979
1.00225,0.0422838
1.0025,0.0605912
1.00275,0.0966112
1.003,0.0869587
1.00325,0.120985
1.0035,1.31E-01
1.00375,0.134356
1.004,0.10624
1.00425,0.123863
1.0045,0.033321
1.00475,0.0765325
1.005,0.00791347
1.00525,0.0181688
1.0055,0.0401158
1.00575,0.00530148
1.006,-0.0160616
1.00625,0.00465487
1.0065,-0.0113987
1.00675,-0.028702
1.007,0.0419509
1.00725,0.0137768
1.0075,0.0371729
1.00775,0.0123373
1.008,0.0236335
1.00825,0.0321981
1.0085,0.0356117
1.00875,0.0141486
1.009,0.0219203
1.00925,0.0677646
1.0095,0.0638053
1.00975,0.0464597
1.01,0.0413614
1.01025,0.0223613
1.0105,-0.0116109
1.01075,0.0836541
1.011,0.0298915
1.01125,0.00874026
1.0115,0.00787152
1.01175,0.0133512
1.012,0.0321278
1.01225,0.0179506
1.0125,0.0097692
1.01275,-0.0279252
1.013,0.0280546
1.01325,-0.0182263
1.0135,0.00540718
1.01375,0.0228267
1.014,-0.0252022
1.01425,-0.00624208
1.0145,0.0392419
1.01475,0.0282271
1.015,-0.0132714
1.01525,0.0407532
1.0155,0.0480649
1.01575,0.0582873
1.016,0.0535033
1.01625,0.0465003
1.0165,0.0726919
1.01675,0.0982333
1.017,0.102624
1.01725,0.127929
1.0175,0.100457
1.01775,0.144464
1.018,0.128856
1.01825,0.173986
1.0185,0.179778
1.01875,0.19807
1.019,0.103783
1.01925,0.140639
1.0195,0.16753
1.01975,0.104703
1.02,0.114944
1.02025,0.159548
1.0205,0.165851
1.02075,0.14867
1.021,0.114379
1.02125,0.122009
1.0215,0.126349
1.02175,0.0578773
1.022,0.0346272
1.02225,0.0340696
1.0225,0.0727632
1.02275,0.0497745
1.023,0.024428
1.02325,0.00607687
1.0235,0.0652583
1.02375,0.0366224
1.024,0.0211596
1.02425,0.0122988
1.0245,0.0639609
1.02475,0.0106399
1.025,0.0771078
1.02525,0.0549668
1.0255,0.0447361
1.02575,0.0798269
1.026,0.0723695
1.02625,0.0368862
1.0265,0.0726031
1.02675,0.0672675
1.027,0.0530969
1.02725,0.0401343
1.0275,0.146739
1.02775,0.0995215
1.028,0.0976306
1.02825,0.0225841
1.0285,0.110613
1.02875,0.0641772
1.029,0.0573831
1.02925,0.0621831
1.0295,0.0306018
1.02975,0.0345532
1.03,0.0611723
1.03025,0.0451194
1.0305,0.0747063
1.03075,0.0835392
1.031,0.0765972
1.03125,0.0707143
1.0315,0.0798723
1.03175,0.0930996
1.032,0.089037
1.03225,0.143311
1.0325,0.135248
1.03275,0.138682
1.033,0.111649
1.03325,0.154766
1.0335,0.158705
1.03375,0.140351
1.034,0.22744
1.03425,0.197476
1.0345,0.237721
1.03475,0.178199
1.035,0.2518
1.03525,0.196049
1.0355,0.227917
1.03575,0.173302
1.036,0.243769
1.03625,0.16612
1.0365,0.145971
1.03675,0.21159
1.037,0.199711
1.03725,0.17391
1.0375,0.158443
1.03775,0.154028
1.038,0.121483
1.03825,0.0966234
1.0385,0.125292
1.03875,0.123012
1.039,0.0952338
1.03925,0.0904598
1.0395,0.06152
1.03975,0.0837769
1.04,0.101549
1.04025,0.109898
1.0405,0.0690008
1.04075,0.0485138
1.041,0.0719346
1.04125,0.0717423
1.0415,0.0781722
1.04175,0.0974733
1.042,0.118413
1.04225,0.121073
1.0425,0.104772
1.04275,0.155163
1.043,0.165819
1.04325,0.149975
1.0435,0.194438
1.04375,0.166749
1.044,0.155479
1.04425,0.109123
1.0445,0.168212
1.04475,0.169662
1.045,0.159908
1.04525,0.140529
1.0455,0.174857
1.04575,0.162468
1.046,0.154879
1.04625,0.157132
1.0465,0.150983
1.04675,0.133673
1.047,0.182203
1.04725,0.201055
1.0475,0.203019
1.04775,0.203506
1.048,0.136488
1.04825,0.151366
1.0485,0.210759
1.04875,0.14304
1.049,0.181189
1.04925,0.186687
1.0495,0.243674
1.04975,0.236084
1.05,0.27887
1.05025,0.285752
1.0505,0.228674
1.05075,0.263777
1.051,0.24513
1.05125,0.295185
1.0515,0.228425
1.05175,0.248385
1.052,0.303461
1.05225,0.21369
1.0525,0.249385
1.05275,0.237584
1.053,0.264163
1.05325,0.272291
1.0535,0.249544
1.05375,0.211498
1.054,0.214327
1.05425,0.210632
1.0545,0.189564
1.05475,0.184658
1.055,0.164775
1.05525,0.145279
1.0555,0.204595
1.05575,0.158847
1.056,0.137185
1.05625,0.11872
1.0565,0.140059
1.05675,0.0809297
1.057,0.124895
1.05725,0.194964
1.0575,0.132733
1.05775,0.19395
1.058,0.195849
1.05825,0.144974
1.0585,0.210612
1.05875,0.220781
1.059,0.2411
1.05925,0.193433
1.0595,0.228617
1.05975,0.29863
1.06,0.231724
1.06025,0.242498
1.0605,0.251168
1.06075,0.263196
1.061,0.269804
1.06125,0.282375
1.0615,0.299935
1.06175,0.278326
1.062,0.262672
1.06225,0.289591
1.0625,0.270624
1.06275,0.282888
1.063,0.289465
1.06325,0.299622
1.0635,0.281885
1.06375,0.266067
1.064,0.268049
1.06425,0.277828
1.0645,0.294239
1.06475,0.298771
1.065,0.269203
1.06525,0.351474
1.0655,0.286634
1.06575,0.332268
1.066,0.255529
1.06625,0.340506
1.0665,0.351152
1.06675,0.321041
1.067,0.38292
1.06725,0.340044
1.0675,0.352277
1.06775,0.361981
1.068,0.31349
1.06825,0.349064
1.0685,0.371184
1.06875,0.327303
1.069,0.33605
1.06925,0.360678
1.0695,0.327361
1.06975,0.333394
1.07,0.325746
1.07025,0.331736
1.0705,0.309206
1.07075,0.300694
1.071,0.297982
1.07125,0.267709
1.0715,0.29473
1.07175,0.206257
1.072,0.211846
1.07225,0.269115
1.0725,0.250002
1.07275,0.298075
1.073,0.202433
1.07325,0.251169
1.0735,0.270054
1.07375,0.301235
1.074,0.295826
1.07425,0.2583
1.0745,0.248419
1.07475,0.285722
1.075,0.325983
1.07525,0.309953
1.0755,0.3706
1.07575,0.351336
1.076,0.368133
1.07625,0.356088
1.0765,0.379444
1.07675,0.387088
1.077,0.384542
1.07725,0.415234
1.0775,0.407492
1.07775,0.412241
1.078,0.436181
1.07825,0.444732
1.0785,0.422631
1.07875,0.410845
1.079,0.399168
1.07925,0.414887
1.0795,0.429734
1.07975,0.381428
1.08,0.363238
1.08025,0.422717
1.0805,0.456096
1.08075,0.368956
1.081,0.45605
1.08125,0.45917
1.0815,0.408976
1.08175,0.433912
1.082,0.392163
1.08225,0.431464
1.0825,0.413155
1.08275,0.415028
1.083,0.409017
1.08325,0.413689
1.0835,0.422634
1.08375,0.444968
1.084,0.444182
1.08425,0.444216
1.0845,0.454806
1.08475,0.461903
1.085,0.417722
1.08525,0.471226
1.0855,0.441808
1.08575,0.391625
1.086,0.39068
1.08625,0.425849
1.0865,0.421063
1.08675,0.41433
1.087,0.366088
1.08725,0.353225
1.0875,0.392287
1.08775,0.390438
1.088,0.417045
1.08825,0.343648
1.0885,0.34531
1.08875,0.339951
1.089,0.397047
1.08925,0.308095
1.0895,0.312859
1.08975,0.357112
1.09,0.362812
1.09025,0.387815
1.0905,0.438959
1.09075,0.380531
1.091,0.419097
1.09125,0.44235
1.0915,0.442907
1.09175,0.453242
1.092,0.463801
1.09225,0.489666
1.0925,0.483325
1.09275,0.528205
1.093,0.508186
1.09325,0.559835
1.0935,0.532505
1.09375,0.539752
1.094,0.524433
1.09425,0.557986
1.0945,0.563265
1.09475,0.588427
1.095,0.559813
1.09525,0.539144
1.0955,0.591283
1.09575,0.563567
1.096,0.566489
1.09625,0.526619
1.0965,0.48272
1.09675,0.548585
1.097,0.495296
1.09725,0.516239
1.0975,0.532365
1.09775,0.535641
1.098,0.489485
1.09825,0.515859
1.0985,0.4596
1.09875,0.518606
1.099,0.49943
1.09925,0.516824
1.0995,0.531613
1.09975,0.519062
1.1,0.527201
1.10025,0.535654
1.1005,0.544216
1.10075,0.540812
1.101,0.535859
1.10125,0.558619
1.1015,0.490237
1.10175,0.512348
1.102,0.484383
1.10225,0.552364
1.1025,0.513978
1.10275,0.530215
1.103,0.472511
1.10325,0.57593
1.1035,0.528413
1.10375,0.537784
1.104,0.489164
1.10425,0.54076
1.1045,0.460832
1.10475,0.497617
1.105,0.521278
1.10525,0.519187
1.1055,0.543607
1.10575,0.505305
1.106,0.483548
1.10625,0.5254
1.1065,0.522094
1.10675,0.546905
1.107,0.533258
1.10725,0.562414
1.1075,0.546911
1.10775,0.574845
1.108,0.574218
1.10825,0.601017
1.1085,0.594828
1.10875,0.588343
1.109,0.632977
1.10925,0.615966
1.1095,0.628369
1.10975,0.674534
1.11,0.66466
1.11025,0.702769
1.1105,0.69163
1.11075,0.752336
1.111,0.720938
1.11125,0.691043
1.1115,0.722296
1.11175,0.684374
1.112,0.643738
1.11225,0.660047
1.1125,0.609918
1.11275,0.601792
1.113,0.666275
1.11325,0.619638
1.1135,0.661062
1.11375,0.554952
1.114,0.660598
1.11425,0.580894
1.1145,0.591931
1.11475,0.631129
1.115,0.553541
1.11525,0.595964
1.1155,0.597766
1.11575,0.587162
1.116,0.5708
1.11625,0.57887
1.1165,0.625357
1.11675,0.608853
1.117,0.60791
1.11725,0.619586
1.1175,0.656764
1.11775,0.599817
1.118,0.650818
1.11825,0.604709
1.1185,0.658062
1.11875,0.611455
1.119,0.606996
1.11925,0.583555
1.1195,0.591709
1.11975,0.64138
1.12,0.611426
1.12025,0.601739
1.1205,0.637784
1.12075,0.609447
1.121,0.604359
1.12125,0.589934
1.1215,0.637711
1.12175,0.62812
1.122,0.565446
1.12225,0.63322
1.1225,0.585041
1.12275,0.623341
1.123,0.640626
1.12325,0.636777
1.1235,0.654259
1.12375,0.616033
1.124,0.619725
1.12425,0.680487
1.1245,0.709852
1.12475,0.705871
1.125,0.722662
1.12525,0.726486
1.1255,0.769716
1.12575,0.673723
1.126,0.795388
1.12625,0.7355
1.1265,0.737385
1.12675,0.713192
1.127,0.754603
1.12725,0.767828
1.1275,0.696563
1.12775,0.749243
1.128,0.728202
1.12825,0.772975
1.1285,0.752066
1.12875,0.720427
1.129,0.736891
1.12925,0.682518
1.1295,0.703111
1.12975,0.685067
1.13,0.688981
1.13025,0.682569
1.1305,0.667715
1.13075,0.680537
1.131,0.675253
1.13125,6.19E-01
1.1315,0.603015
1.13175,0.616462
1.132,0.602278
1.13225,0.665406
1.1325,0.615847
1.13275,0.61789
1.133,0.625545
1.13325,0.658883
1.1335,0.604679
1.13375,0.609808
1.134,0.64046
1.13425,0.638242
1.1345,0.595681
1.13475,0.601036
1.135,0.692597
1.13525,0.702981
1.1355,0.704174
1.13575,0.684403
1.136,0.732158
1.13625,0.6239
1.1365,0.726208
1.13675,0.686079
1.137,0.69833
1.13725,0.679871
1.1375,0.671151
1.13775,0.676867
1.138,0.666851
1.13825,0.654102
1.1385,0.665271
1.13875,0.668661
1.139,0.696438
1.13925,0.687895
1.1395,0.683453
1.13975,0.696737
1.14,0.71469
1.14025,0.667615
1.1405,0.666753
1.14075,0.742591
1.141,0.686003
1.14125,0.729306
1.1415,0.696564
1.14175,0.750216
1.142,0.800062
1.14225,0.733013
1.1425,0.791043
1.14275,0.708715
1.143,0.747749
1.14325,0.774921
1.1435,0.72231
1.14375,0.804635
1.144,0.787683
1.14425,0.784711
1.1445,0.729865
1.14475,0.766052
1.145,0.757254
1.14525,0.721552
1.1455,0.710358
1.14575,0.708248
1.146,0.689734
1.14625,0.689213
1.1465,0.664632
1.14675,0.62875
1.147,0.653641
1.14725,0.672977
1.1475,0.611386
1.14775,0.674134
1.148,0.62043
1.14825,0.607445
1.1485,0.594367
1.14875,0.661753
1.149,0.664914
1.14925,0.620354
1.1495,0.591901
1.14975,0.608474
1.15,0.590857
1.15025,0.661454
1.1505,0.610272
1.15075,0.64721
1.151,0.653861
1.15125,0.653079
1.1515,0.704632
1.15175,0.657581
1.152,0.652024
1.15225,0.717207
1.1525,0.701373
1.15275,0.66848
1.153,0.67472
1.15325,0.684762
1.1535,0.701952
1.15375,0.693451
1.154,0.688468
1.15425,0.685757
1.1545,0.669674
1.15475,0.694774
1.155,0.678715
1.15525,0.659265
1.1555,0.672793
1.15575,0.64847
1.156,0.651299
1.15625,0.682464
1.1565,0.672484
1.15675,0.631132
1.157,0.755322
1.15725,0.724082
1.1575,0.656964
1.15775,0.701259
1.158,0.700852
1.15825,0.719486
1.1585,0.714837
1.15875,0.709759
1.159,0.705318
1.15925,0.76357
1.1595,0.682789
1.15975,0.718441
1.16,0.735341
1.16025,0.700628
1.1605,0.733865
1.16075,0.705334
1.161,0.680377
1.16125,0.696038
1.1615,0.679212
1.16175,0.676456
1.162,0.657704
1.16225,0.627584
1.1625,0.628219
1.16275,0.615473
1.163,0.586115
1.16325,0.577454
1.1635,0.614853
1.16375,0.575615
1.164,0.612196
1.16425,0.52753
1.1645,0.545782
1.16475,0.536881
1.165,0.510106
1.16525,0.56335
1.1655,0.4957
1.16575,0.540445
1.166,0.583298
1.16625,0.563928
1.1665,0.55032
1.16675,0.536583
1.167,0.586223
1.16725,0.610156
1.1675,0.643049
1.16775,0.655258
1.168,0.570248
1.16825,0.672056
1.1685,0.645701
1.16875,0.618468
1.169,0.619969
1.16925,0.617706
1.1695,0.623091
1.16975,0.640981
1.17,0.635758
1.17025,0.63404
1.1705,0.621837
1.17075,0.620031
1.171,0.612695
1.17125,0.62952
1.1715,0.579893
1.17175,0.580713
1.172,0.618127
1.17225,0.550917
1.1725,0.613104
1.17275,0.596877
1.173,0.613066
1.17325,0.560521
1.1735,0.549243
1.17375,0.605211
1.174,0.598975
1.17425,0.607404
1.1745,0.601193
1.17475,0.55685
1.175,0.571476
1.17525,0.563783
1.1755,0.600069
1.17575,0.616815
1.176,0.593166
1.17625,0.571105
1.1765,0.603309
1.17675,0.557637
1.177,0.588143
1.17725,0.543897
1.1775,0.57315
1.17775,0.531535
1.178,0.526138
1.17825,0.54578
1.1785,0.492677
1.17875,0.502381
1.179,0.458599
1.17925,0.504955
1.1795,0.464899
1.17975,0.436894
1.18,0.398948
1.18025,0.408411
1.1805,0.377034
1.18075,0.443282
1.181,0.448945
1.18125,0.394681
1.1815,0.399206
1.18175,0.351496
1.182,0.34896
1.18225,0.448584
1.1825,0.396357
1.18275,0.455409
1.183,0.449473
1.18325,0.42819
1.1835,0.467995
1.18375,0.464448
1.184,0.460387
1.18425,0.486692
1.1845,0.492907
1.18475,0.499614
1.185,0.485716
1.18525,0.513874
1.1855,0.465005
1.18575,0.511336
1.186,0.500876
1.18625,0.476863
1.1865,0.533389
1.18675,0.507721
1.187,0.470178
1.18725,0.455305
1.1875,0.511904
1.18775,0.462123
1.188,0.445141
1.18825,0.506958
1.1885,0.456852
1.18875,0.445595
1.189,0.425799
1.18925,0.39027
1.1895,0.368162
1.18975,0.392856
1.19,0.421684
1.19025,0.423144
1.1905,0.417616
1.19075,0.363856
1.191,0.395375
1.19125,0.404942
1.1915,0.381135
1.19175,0.397727
1.192,0.394294
1.19225,0.389303
1.1925,0.383001
1.19275,0.388982
1.193,0.371907
1.19325,0.395109
1.1935,0.387983
1.19375,0.386123
1.194,0.379031
1.19425,0.353167
1.1945,0.332279
1.19475,0.32623
1.195,0.339931
1.19525,0.303523
1.1955,0.289622
1.19575,0.277518
1.196,0.2806
1.19625,0.290693
1.1965,0.278244
1.19675,0.258604
1.197,0.266078
1.19725,0.193538
1.1975,0.26351
1.19775,0.250117
1.198,0.220293
1.19825,0.176905
1.1985,0.280147
1.19875,0.280496
1.199,0.269026
1.19925,0.238595
1.1995,0.259536
1.19975,0.277322
1.2,0.281172
1.20025,0.298473
1.2005,0.302854
1.20075,0.290305
1.201,0.313962
1.20125,0.304121
1.2015,0.272387
1.20175,0.319547
1.202,0.365885
1.20225,0.310306
1.2025,0.299324
1.20275,0.370107
1.203,0.292339
1.20325,0.260546
1.2035,0.339926
1.20375,0.294269
1.204,0.242608
1.20425,0.259625
1.2045,0.259353
1.20475,0.274608
1.205,0.233531
1.20525,0.266593
1.2055,0.202802
1.20575,0.241921
1.206,0.181365
1.20625,0.224375
1.2065,0.220481
1.20675,0.185501
1.207,0.181311
1.20725,0.149234
1.2075,0.165346
1.20775,0.179971
1.208,0.156823
1.20825,0.167297
1.2085,0.155624
1.20875,0.154862
1.209,0.165001
1.20925,0.184012
1.2095,0.170799
1.20975,0.206492
1.21,0.206955
1.21025,0.138407
1.2105,0.167961
1.21075,0.16019
1.211,0.107217
1.21125,0.121872
1.2115,0.127945
1.21175,0.129029
1.212,0.0978366
1.21225,0.120545
1.2125,0.0762125
1.21275,0.0828895
1.213,0.05675
1.21325,0.0381219
1.2135,0.0494478
1.21375,0.0263341
1.214,0.0635963
1.21425,0.0310586
1.2145,0.0396087
1.21475,0.0392131
1.215,0.0435059
1.21525,0.0636216
1.2155,0.0571839
1.21575,0.0874587
1.216,0.0983167
1.21625,0.107174
1.2165,0.0901855
1.21675,0.117784
1.217,0.122187
1.21725,0.136844
1.2175,0.140618
1.21775,0.102205
1.218,0.112716
1.21825,0.0758318
1.2185,0.172186
1.21875,0.127168
1.219,0.146668
1.21925,0.048911
1.2195,0.105192
1.21975,0.106589
1.22,0.123853
1.22025,0.136169
1.2205,0.0523541
1.22075,0.0443342
1.221,0.0366416
1.22125,0.00918546
1.2215,-0.000215157
1.22175,0.0307031
1.222,0.000492636
1.22225,0.000821123
1.2225,-0.0451446
1.22275,-0.0643141
1.223,-0.024144
1.22325,-0.0129786
1.2235,-0.0316202
1.22375,-0.03142
1.224,-0.0755403
1.22425,-0.0777424
1.2245,-0.0679373
1.22475,-0.0706627
1.225,-0.0346353
1.22525,-0.0660505
1.2255,-0.0813137
1.22575,-0.0765807
1.226,-0.114363
1.22625,-0.0671563
1.2265,-0.0834509
1.22675,-0.037633
1.227,-0.0580655
1.22725,-0.033289
1.2275,-0.103965
1.22775,-0.138718
1.228,-0.102564
1.22825,-0.105029
1.2285,-0.0501892
1.22875,-0.0507304
1.229,-0.0989837
1.22925,-0.0952551
1.2295,-0.102585
1.22975,-0.0977578
1.23,-0.106599
1.23025,-0.0961064
1.2305,-0.125017
1.23075,-0.116434
1.231,-0.121485
1.23125,-0.113049
1.2315,-0.158039
1.23175,-0.0855744
1.232,-0.105262
1.23225,-0.130109
1.2325,-0.0893191
1.23275,-0.110174
1.233,-0.0673264
1.23325,-1.17E-01
1.2335,-0.0409452
1.23375,-0.0601138
1.234,-0.0860455
1.23425,-0.0811911
1.2345,-0.0916166
1.23475,-0.0139663
1.235,-0.0292839
1.23525,-0.0933495
1.2355,-0.00633525
1.23575,-0.0366256
1.236,-0.107789
1.23625,-0.0438397
1.2365,-0.0547223
1.23675,-0.0830746
1.237,-0.0892942
1.23725,-0.122066
1.2375,-0.145259
1.23775,-0.148021
1.238,-0.162368
1.23825,-0.192436
1.2385,-0.206857
1.23875,-0.183185
1.239,-0.181214
1.23925,-0.253384
1.2395,-0.204296
1.23975,-0.279429
1.24,-0.256614
1.24025,-0.267376
1.2405,-0.299593
1.24075,-0.285534
1.241,-0.274921
1.24125,-0.222032
1.2415,-0.226247
1.24175,-0.204707
1.242,-0.185384
1.24225,-0.197238
1.2425,-0.249554
1.24275,-2.89E-01
1.243,-0.17353
1.24325,-0.192207
1.2435,-0.197233
1.24375,-0.247506
1.244,-0.198152
1.24425,-0.233878
1.2445,-0.268817
1.24475,-0.203972
1.245,-0.197771
1.24525,-0.22252
1.2455,-0.224424
1.24575,-0.225536
1.246,-0.231556
1.24625,-0.241892
1.2465,-0.234603
1.24675,-0.247425
1.247,-0.202535
1.24725,-0.264502
1.2475,-0.276144
1.24775,-0.297101
1.248,-0.232836
1.24825,-0.24942
1.2485,-0.25095
1.24875,-0.209684
1.249,-0.212158
1.24925,-0.240353
1.2495,-0.20896
1.24975,-0.24135
1.25,-0.159757
1.25025,-0.184366
1.2505,-0.159935
1.25075,-0.170537
1.251,-0.216645
1.25125,-0.164856
1.2515,-0.17647
1.25175,-0.189898
1.252,-0.17324
1.25225,-0.197792
1.2525,-0.227423
1.25275,-0.211925
1.253,-0.203229
1.25325,-0.250484
1.2535,-0.254256
1.25375,-0.263175
1.254,-0.267817
1.25425,-0.290731
1.2545,-0.295321
1.25475,-0.292432
1.255,-0.297854
1.25525,-0.353507
1.2555,-0.341877
1.25575,-0.345588
1.256,-0.326818
1.25625,-0.402919
1.2565,-0.351102
1.25675,-0.320677
1.257,-0.328848
1.25725,-0.35898
1.2575,-0.393493
1.25775,-0.322711
1.258,-0.384832
1.25825,-0.292365
1.2585,-0.356455
1.25875,-0.294664
1.259,-0.331172
1.25925,-0.291852
1.2595,-0.302978
1.25975,-0.313353
1.26,-0.320182
1.26025,-0.322869
1.2605,-0.260651
1.26075,-0.275712
1.261,-0.300665
1.26125,-0.251178
1.2615,-0.257677
1.26175,-0.253608
1.262,-0.285239
1.26225,-0.285246
1.2625,-0.286724
1.26275,-0.268132
1.263,-0.271066
1.26325,-0.267057
1.2635,-0.299748
1.26375,-0.270237
1.264,-0.261442
1.26425,-0.288057
1.2645,-0.302459
1.26475,-0.219108
1.265,-0.320426
1.26525,-0.294396
1.2655,-0.268225
1.26575,-0.327548
1.266,-0.320117
1.26625,-0.222598
1.2665,-0.231302
1.26675,-0.229584
1.267,-0.258376
1.26725,-0.274685
1.2675,-0.231684
1.26775,-0.279106
1.268,-0.237945
1.26825,-0.255463
1.2685,-0.295077
1.26875,-0.243046
1.269,-0.257701
1.26925,-0.303951
1.2695,-0.293337
1.26975,-0.288424
1.27,-0.307708
1.27025,-0.323613
1.2705,-0.329486
1.27075,-0.312096
1.271,-0.322335
1.27125,-0.337138
1.2715,-0.323464
1.27175,-0.399526
1.272,-0.362313
1.27225,-0.443631
1.2725,-0.469179
1.27275,-0.418853
1.273,-0.332963
1.27325,-0.422123
1.2735,-0.39576
1.27375,-0.405744
1.274,-0.414405
1.27425,-0.386325
1.2745,-0.361159
1.27475,-0.329436
1.275,-0.347755
1.27525,-0.327385
1.2755,-0.330707
1.27575,-0.312659
1.276,-0.29754
1.27625,-0.298497
1.2765,-0.27043
1.27675,-0.304696
1.277,-0.291886
1.27725,-0.224054
1.2775,-0.224087
1.27775,-0.268844
1.278,-0.266109
1.27825,-0.258142
1.2785,-0.220693
1.27875,-0.255184
1.279,-0.227452
1.27925,-0.271893
1.2795,-0.260529
1.27975,-0.300665
1.28,-0.289612
1.28025,-0.297378
1.2805,-0.326811
1.28075,-0.293184
1.281,-0.22755
1.28125,-0.259458
1.2815,-0.236605
1.28175,-0.272601
1.282,-0.235858
1.28225,-0.295907
1.2825,-0.260725
1.28275,-0.239092
1.283,-0.235535
1.28325,-0.27201
1.2835,-0.276451
1.28375,-0.251895
1.284,-0.254858
1.28425,-0.265307
1.2845,-0.255156
1.28475,-0.244007
1.285,-0.23483
1.28525,-0.263129
1.2855,-0.286394
1.28575,-0.227312
1.286,-0.315009
1.28625,-0.27642
1.2865,-0.242661
1.28675,-0.26926
1.287,-0.248682
1.28725,-0.321212
1.2875,-0.311256
1.28775,-0.279228
1.288,-0.272685
1.28825,-0.305981
1.2885,-0.365815
1.28875,-0.290121
1.289,-0.354983
1.28925,-0.380136
1.2895,-0.359068
1.28975,-0.383768
1.29,-0.289843
1.29025,-0.333445
1.2905,-0.359497
1.29075,-0.301765
1.291,-0.311582
1.29125,-0.27553
1.2915,-0.262546
1.29175,-0.255387
1.292,-0.233213
1.29225,-0.217938
1.2925,-0.232585
1.29275,-0.192702
1.293,-0.219126
1.29325,-0.197093
1.2935,-0.205352
1.29375,-0.213241
1.294,-0.168164
1.29425,-0.178494
1.2945,-0.149249
1.29475,-0.102503
1.295,-0.18538
1.29525,-0.153235
1.2955,-0.117827
1.29575,-0.189314
1.296,-0.159069
1.29625,-0.161747
1.2965,-0.229543
1.29675,-0.234172
1.297,-0.146576
1.29725,-0.187441
1.2975,-0.243038
1.29775,-0.177059
1.298,-0.200383
1.29825,-0.20748
1.2985,-0.249716
1.29875,-0.251569
1.299,-0.209336
1.29925,-0.193618
1.2995,-0.213371
1.29975,-0.194595
1.3,-0.195946
1.30025,-0.196991
1.3005,-0.18955
1.30075,-0.166901
1.301,-0.207382
1.30125,-0.146315
1.3015,-0.183148
1.30175,-0.234884
1.302,-0.223956
1.30225,-0.240208
1.3025,-0.199935
1.30275,-0.188856
1.303,-0.248009
1.30325,-0.212843
1.3035,-1.72E-01
1.30375,-0.163669
1.304,-0.165875
1.30425,-0.220486
1.3045,-0.235101
1.30475,-0.239636
1.305,-0.199994
1.30525,-0.222422
1.3055,-0.222386
1.30575,-0.176557
1.306,-0.277911
1.30625,-0.214919
1.3065,-0.219233
1.30675,-0.159646
1.307,-0.200203
1.30725,-0.190872
1.3075,-0.172333
1.30775,-0.145799
1.308,-0.15266
1.30825,-0.122606
1.3085,-0.121592
1.30875,-0.114865
1.309,-0.0920677
1.30925,-0.0809646
1.3095,-0.0684819
1.30975,-0.121304
1.31,-0.00455708
1.31025,-0.0286627
1.3105,-0.0533626
1.31075,-0.0136003
1.311,-0.0545222
1.31125,-0.0768409
1.3115,-0.0275798
1.31175,-0.0314163
1.312,-0.0890415
1.31225,-0.0298836
1.3125,-0.0815788
1.31275,-0.0959606
1.313,-0.116312
1.31325,-0.0779999
1.3135,-0.0565174
1.31375,-0.0966968
1.314,-0.126927
1.31425,-0.0608091
1.3145,-0.135079
1.31475,-0.0843851
1.315,-0.0843508
1.31525,-0.118044
1.3155,-0.123377
1.31575,-0.109743
1.316,-0.100892
1.31625,-0.112725
1.3165,-0.109432
1.31675,-0.0841518
1.317,-0.106652
1.31725,-0.0957819
1.3175,-0.0753525
1.31775,-0.0910847
1.318,-0.052524
1.31825,-0.0346387
1.3185,-0.043636
1.31875,-0.0442165
1.319,-0.0416019
1.31925,-0.0205269
1.3195,-0.110699
1.31975,-0.0334417
1.32,-0.109693
1.32025,-0.0697846
1.3205,-0.102456
1.32075,-0.106035
1.321,-0.100365
1.32125,-0.114114
1.3215,-0.0943742
1.32175,-0.0446617
1.322,-0.122781
1.32225,-0.0899121
1.3225,-0.0772362
1.32275,-0.0968168
1.323,-0.0582155
1.32325,-0.0892269
1.3235,-0.0514005
1.32375,-0.0319581
1.324,0.0012315
1.32425,-0.00613739
1.3245,0.00205659
1.32475,0.0414173
1.325,-0.00124248
1.32525,0.0725314
1.3255,0.0488212
1.32575,0.0599588
1.326,0.0534728
1.32625,0.02754
1.3265,0.0447026
1.32675,0.0919055
1.327,0.101848
1.32725,0.0701265
1.3275,0.0722735
1.32775,0.0971364
1.328,0.081447
1.32825,0.0886878
1.3285,0.0948983
1.32875,0.0421124
1.329,0.0529785
1.32925,0.0668582
1.3295,0.0139654
1.32975,0.0472901
1.33,0.00758756
1.33025,-0.00301562
1.3305,-0.0289026
1.33075,-0.0101721
1.331,-0.0175417
1.33125,-0.0507316
1.3315,0.014055
1.33175,-0.000187049
1.332,-0.0674472
1.33225,-0.00932699
1.3325,-0.0698767
1.33275,-0.0048372
1.333,0.00151863
1.33325,-0.0185658
1.3335,0.0452755
1.33375,-0.0102579
1.334,0.0376692
1.33425,0.0602359
1.3345,0.0378315
1.33475,-0.0137307
1.335,-0.0140126
1.33525,0.0364093
1.3355,0.0590825
1.33575,0.0670487
1.336,0.0671327
1.33625,0.0823403
1.3365,0.0107067
1.33675,0.0270694
1.337,0.0359798
1.33725,0.0611145
1.3375,0.0441365
1.33775,0.0287207
1.338,0.0468054
1.33825,0.048624
1.3385,0.0282503
1.33875,0.0762705
1.339,0.0614023
1.33925,0.0712794
1.3395,0.0858206
1.33975,0.0611585
1.34,0.0602107
1.34025,0.0194992
1.3405,0.132628
1.34075,0.0724431
1.341,0.149615
1.34125,0.133949
1.3415,0.10699
1.34175,0.137738
1.342,0.155408
1.34225,0.168669
1.3425,0.231308
1.34275,0.169462
1.343,0.13185
1.34325,0.215766
1.3435,0.18655
1.34375,0.238166
1.344,0.2112
1.34425,0.130436
1.3445,0.164176
1.34475,0.146484
1.345,0.124194
1.34525,0.149373
1.3455,0.127658
1.34575,0.115366
1.346,0.110892
1.34625,0.0891721
1.3465,0.104312
1.34675,0.0720812
1.347,0.0821374
1.34725,0.0575693
1.3475,0.0684365
1.34775,0.0547684
1.348,0.043614
1.34825,0.021328
1.3485,0.0667321
1.34875,0.055364
1.349,0.0122263
1.34925,0.0380403
1.3495,0.0768634
1.34975,0.115839
1.35,0.053233
1.35025,0.104704
1.3505,0.127491
1.35075,0.0866921
1.351,0.137188
1.35125,0.121464
1.3515,0.090275
1.35175,0.125876
1.352,0.193951
1.35225,0.169846
1.3525,0.168761
1.35275,0.150783
1.353,0.157154
1.35325,0.118443
1.3535,0.161485
1.35375,0.142746
1.354,0.142678
1.35425,0.152956
1.3545,0.151414
1.35475,0.156413
1.355,0.158755
1.35525,0.161741
1.3555,0.14091
1.35575,0.165721
1.356,0.151626
1.35625,0.118434
1.3565,0.139464
1.35675,0.16558
1.357,0.13268
1.35725,0.157934
1.3575,0.24096
1.35775,0.164288
1.358,0.205608
1.35825,0.190842
1.3585,0.188853
1.35875,0.24031
1.359,0.240634
1.35925,0.199894
1.3595,0.197177
1.35975,0.236375
1.36,0.262877
1.36025,0.168853
1.3605,0.197518
1.36075,0.216862
1.361,0.22899
1.36125,0.176466
1.3615,0.204902
1.36175,0.154861
1.362,0.15342
1.36225,0.159631
1.3625,0.139555
1.36275,0.146086
1.363,0.110811
1.36325,0.144973
1.3635,0.151849
1.36375,0.0992849
1.364,0.068278
1.36425,0.040208
1.3645,0.101377
1.36475,0.0890123
1.365,0.0535827
1.36525,0.0812218
1.3655,0.113536
1.36575,0.0849528
1.366,0.053582
1.36625,0.103149
1.3665,0.143248
1.36675,0.158833
1.367,0.158636
1.36725,0.15779
1.3675,0.2004
1.36775,0.121003
1.368,0.157403
1.36825,0.197377
1.3685,0.184454
1.36875,0.156663
1.369,0.166683
1.36925,0.229967
1.3695,0.226909
1.36975,0.184966
1.37,0.197169
1.37025,0.191343
1.3705,0.192221
1.37075,0.174419
1.371,0.182588
1.37125,0.181658
1.3715,0.1907
1.37175,0.220753
1.372,0.156912
1.37225,0.173102
1.3725,0.24544
1.37275,0.181376
1.373,0.156732
1.37325,0.214021
1.3735,0.163214
1.37375,0.19274
1.374,0.208613
1.37425,0.1328
1.3745,0.149727
1.37475,0.178046
1.375,0.165049
1.37525,0.181319
1.3755,0.187779
1.37575,0.175443
1.376,0.211713
1.37625,0.178385
1.3765,0.18928
1.37675,0.23475
1.377,0.176996
1.37725,0.195299
1.3775,0.16939
1.37775,0.18229
1.378,0.18174
1.37825,0.167721
1.3785,0.115779
1.37875,0.156614
1.379,0.11835
1.37925,0.143438
1.3795,0.140545
1.37975,0.10427
1.38,0.0661886
1.38025,0.0928684
1.3805,0.129793
1.38075,0.00563014
1.381,0.0870427
1.38125,0.0898686
1.3815,0.058078
1.38175,0.120332
1.382,0.0624206
1.38225,0.0966415
1.3825,0.0489406
1.38275,0.0899735
1.383,0.10947
1.38325,0.0933693
1.3835,0.132732
1.38375,0.128979
1.384,0.151397
1.38425,0.156555
1.3845,0.1506
1.38475,0.188504
1.385,0.183235
1.38525,0.156325
1.3855,0.180508
1.38575,0.196468
1.386,0.205269
1.38625,0.15461
1.3865,0.2025
1.38675,0.171319
1.387,0.212218
1.38725,0.221763
1.3875,0.158455
1.38775,0.148234
1.388,0.150747
1.38825,0.140214
1.3885,0.103496
1.38875,0.0973936
1.389,0.187864
1.38925,0.104877
1.3895,0.193919
1.38975,0.107533
1.39,0.149968
1.39025,0.182884
1.3905,0.150011
1.39075,0.0823029
1.391,0.0939761
1.39125,0.135949
1.3915,0.125075
1.39175,0.144225
1.392,0.134402
1.39225,0.123999
1.3925,0.121254
1.39275,0.126165
1.393,0.124582
1.39325,0.133407
1.3935,0.165534
1.39375,0.139301
1.394,0.12563
1.39425,0.0901109
1.3945,0.0559723
1.39475,0.120671
1.395,0.0747598
1.39525,0.0886433
1.3955,0.0601384
1.39575,0.0534519
1.396,0.0301848
1.39625,0.00478271
1.3965,0.00575534
1.39675,0.0869356
1.397,0.000886564
1.39725,0.0419789
1.3975,0.0429561
1.39775,0.0395597
1.398,0.0165895
1.39825,0.0555596
1.3985,0.04562
1.39875,0.0346212
1.399,0.0690227
1.39925,0.0651026
1.3995,0.0562333
1.39975,0.0772532
1.4,0.0930574
1.40025,0.100693
1.4005,0.101582
1.40075,0.136666
1.401,0.146838
1.40125,0.143945
1.4015,0.136961
1.40175,0.19923
1.402,0.151243
1.40225,0.121376
1.4025,0.138292
1.40275,0.0895496
1.403,0.215281
1.40325,0.133638
1.4035,0.115319
1.40375,0.186152
1.404,0.0925023
1.40425,0.111181
1.4045,0.167291
1.40475,0.103559
1.405,0.0663938
1.40525,0.0579004
1.4055,0.0404567
1.40575,0.0615719
1.406,0.106569
1.40625,0.0366573
1.4065,0.042947
1.40675,0.0483518
1.407,0.0746303
1.40725,0.03408
1.4075,0.0673354
1.40775,0.049994
1.408,0.0530273
1.40825,0.0553487
1.4085,0.0379716
1.40875,0.040382
1.409,0.0229293
1.40925,0.0612961
1.4095,0.0466593
1.40975,0.0603427
1.41,0.00664652
1.41025,-0.00109997
1.4105,0.0840128
1.41075,0.018398
1.411,-0.000962084
1.41125,0.0162833
1.4115,0.0354703
1.41175,0.00773059
1.412,0.025553
1.41225,-0.0269705
1.4125,0.0245736
1.41275,0.0169662
1.413,-0.00705596
1.41325,-0.00355415
1.4135,-0.00200813
1.41375,-0.0473235
1.414,-0.0394825
1.41425,-0.0503588
1.4145,-0.0498534
1.41475,-0.0332192
1.415,-0.00901484
1.41525,0.0265142
1.4155,0.0283686
1.41575,0.0412941
1.416,0.0312699
1.41625,0.0273248
1.4165,0.0590909
1.41675,0.0665511
1.417,0.0673275
1.41725,0.088046
1.4175,0.0625266
1.41775,0.0893748
1.418,0.065098
1.41825,0.152518
1.4185,0.105796
1.41875,0.0818988
1.419,0.0497929
1.41925,0.0751352
1.4195,0.116208
1.41975,0.100581
1.42,0.100932
1.42025,0.0510921
1.4205,0.0875868
1.42075,0.0721064
1.421,0.0339193
1.42125,-0.00719179
1.4215,0.0172972
1.42175,-0.010664
1.422,0.017752
1.42225,0.00534663
1.4225,0.00539536
1.42275,-0.0460053
1.423,-0.0486017
1.42325,-0.0465362
1.4235,-0.0166529
1.42375,-0.0167154
1.424,-0.0534009
1.42425,-0.0404811
1.4245,-0.0368133
1.42475,-0.0216713
1.425,-0.0301156
1.42525,-0.0420793
1.4255,-0.062641
1.42575,-0.038728
1.426,-0.00361872
1.42625,0.0277245
1.4265,0.0242239
1.42675,-0.0213371
1.427,-0.0565353
1.42725,-0.0403133
1.4275,-0.0697184
1.42775,-0.0526654
1.428,-0.0779195
1.42825,0.00449314
1.4285,-0.0340833
1.42875,-0.0765649
1.429,-0.0335418
1.42925,-0.041135
1.4295,-0.0555376
1.42975,-0.0847042
1.43,-0.0747257
1.43025,-0.0537706
1.4305,-0.0781802
1.43075,-0.0383287
1.431,-0.0847343
1.43125,-0.0266396
1.4315,-0.084667
1.43175,-0.0807001
1.432,-0.0305463
1.43225,-0.0264555
1.4325,-0.00539975
1.43275,-0.00504241
1.433,0.0331409
1.43325,0.0250893
1.4335,-0.00149489
1.43375,0.0377136
1.434,0.0351422
1.43425,0.061797
1.4345,0.0479133
1.43475,0.0358198
1.435,0.0394141
1.43525,0.0473196
1.4355,0.0312417
1.43575,0.0303142
1.436,0.0223258
1.43625,0.0778492
1.4365,-0.0376759
1.43675,0.0206787
1.437,-0.00215118
1.43725,-0.0249031
1.4375,-0.0421065
1.43775,-0.0302816
1.438,-0.0567014
1.43825,-0.0463675
1.4385,-0.100029
1.43875,-0.0520513
1.439,-0.0902917
1.43925,-0.126728
1.4395,-0.11761
1.43975,-0.0825283
1.44,-0.166585
1.44025,-0.103299
1.4405,-0.156023
1.44075,-0.123874
1.441,-0.10955
1.44125,-0.132542
1.4415,-0.149865
1.44175,-0.096832
1.442,-0.10212
1.44225,-0.0822039
1.4425,-0.0899178
1.44275,-0.110769
1.443,-0.102779
1.44325,-0.0468374
1.4435,-0.0176481
1.44375,-0.096945
1.444,-0.0684375
1.44425,-0.117558
1.4445,-0.0370377
1.44475,-4.22E-02
1.445,-0.0376717
1.44525,-0.0791427
1.4455,-0.0535744
1.44575,-0.0637207
1.446,-0.0658849
1.44625,-0.0673261
1.4465,-0.0666798
1.44675,-0.0844609
1.447,-0.071411
1.44725,-0.103947
1.4475,-0.112309
1.44775,-0.111207
1.448,-0.106125
1.44825,-0.0762962
1.4485,-0.0975693
1.44875,-0.0535867
1.449,-0.0501847
1.44925,-0.0634542
1.4495,-0.0488037
1.44975,-0.0237096
1.45,-0.0341002
1.45025,0.0306889
1.4505,0.00291649
1.45075,0.0310221
1.451,-0.0042896
1.45125,-0.0156944
1.4515,0.00474579
1.45175,-0.0288618
1.452,0.0378711
1.45225,0.0318241
1.4525,-0.00653484
1.45275,-0.02785
1.453,-0.0504813
1.45325,-0.0273671
1.4535,-0.0503654
1.45375,-0.0642996
1.454,-0.0775195
1.45425,-0.0851753
1.4545,-0.102871
1.45475,-0.116136
1.455,-0.0858667
1.45525,-0.118935
1.4555,-0.145315
1.45575,-0.126255
1.456,-0.157316
1.45625,-0.170349
1.4565,-0.167271
1.45675,-0.184844
1.457,-0.169286
1.45725,-0.149183
1.4575,-0.157394
1.45775,-0.118521
1.458,-0.170266
1.45825,-0.118835
1.4585,-0.0878825
1.45875,-0.126475
1.459,-0.133586
1.45925,-0.0400876
1.4595,-0.0660969
1.45975,-0.11307
1.46,-0.0649587
1.46025,-0.0832932
1.4605,-0.0194356
1.46075,-0.0320241
1.461,-0.0741604
1.46125,-0.0861005
1.4615,-0.0520111
1.46175,-0.0493215
1.462,-0.0708601
1.46225,-0.0690037
1.4625,-0.0642834
1.46275,-0.0519339
1.463,-0.0798351
1.46325,-0.064518
1.4635,-0.0414486
1.46375,-0.0935856
1.464,-0.0863809
1.46425,-0.112965
1.4645,-0.125999
1.46475,-0.0537087
1.465,-0.0689715
1.46525,-0.096216
1.4655,-0.0652584
1.46575,-0.0488609
1.466,0.0150139
1.46625,-0.0140068
1.4665,-0.0702087
1.46675,-0.047832
1.467,-0.0344775
1.46725,-0.037455
1.4675,-0.0517348
1.46775,-0.0109708
1.468,-0.0244227
1.46825,0.00801264
1.4685,-0.0203515
1.46875,-0.0499464
1.469,-0.00600633
1.46925,-0.0170563
1.4695,-0.0403831
1.46975,-0.0865631
1.47,-0.0652574
1.47025,-0.0901934
1.4705,-0.0665285
1.47075,-0.114733
1.471,-0.120259
1.47125,-0.147997
1.4715,-0.0886786
1.47175,-0.152748
1.472,-0.202671
1.47225,-0.107995
1.4725,-0.183641
1.47275,-0.181053
1.473,-0.0993597
1.47325,-0.162629
1.4735,-0.129645
1.47375,-0.12274
1.474,-0.177328
1.47425,-0.130755
1.4745,-0.143974
1.47475,-0.14785
1.475,-0.0990085
1.47525,-0.067485
1.4755,-0.0969023
1.47575,-0.0984751
1.476,-0.0933803
1.47625,-0.0217638
1.4765,-0.0189725
1.47675,-0.0330252
1.477,-0.0530407
1.47725,0.00359789
1.4775,0.0147829
1.47775,-0.0160857
1.478,-0.0181153
1.47825,-0.0265661
1.4785,0.00814086
1.47875,0.00435285
1.479,-0.0328266
1.47925,-0.00962234
1.4795,-0.0425928
1.47975,-0.0171935
1.48,-0.0878571
1.48025,-0.0419053
1.4805,-0.0226667
1.48075,0.0212181
1.481,-0.11373
1.48125,-0.0598118
1.4815,-0.0605299
1.48175,-0.0234909
1.482,-0.0757701
1.48225,-0.0286622
1.4825,-0.0793094
1.48275,-0.0644708
1.483,-0.0238243
1.48325,-0.0360742
1.4835,-0.0181545
1.48375,-0.0397685
1.484,-0.00954608
1.48425,-0.0296249
1.4845,-0.0113979
1.48475,-0.0468591
1.485,-0.0519292
1.48525,-0.0639242
1.4855,-0.0902537
1.48575,-0.0338564
1.486,-0.0464199
1.48625,-0.0188282
1.4865,-0.0339624
1.48675,-0.115633
1.487,-0.0675012
1.48725,-5.12E-02
1.4875,-0.138363
1.48775,-0.109397
1.488,-0.11766
1.48825,-0.0711675
1.4885,-0.08552
1.48875,-0.0923701
1.489,-0.168249
1.48925,-0.081935
1.4895,-0.110707
1.48975,-0.108029
1.49,-0.116822
1.49025,-0.0757289
1.4905,-0.115298
1.49075,-0.079881
1.491,-0.0689233
1.49125,-0.080832
1.4915,-0.0499322
1.49175,-0.0645624
1.492,-0.0369021
1.49225,-0.0392035
1.4925,-0.00699062
1.49275,-0.0101028
1.493,0.0160576
1.49325,0.0063668
1.4935,0.0404065
1.49375,-0.00796969
1.494,0.026607
1.49425,0.0426903
1.4945,0.0210092
1.49475,-0.0191869
1.495,0.0560891
1.49525,0.0662294
1.4955,-0.0191934
1.49575,0.0408652
1.496,0.0515311
1.49625,-0.0254111
1.4965,0.0260805
1.49675,0.00817445
1.497,0.0129635
1.49725,-0.0540862
1.4975,-0.0247389
1.49775,-0.0305495
1.498,-0.0600246
1.49825,-0.0180753
1.4985,-0.0782259
1.49875,-0.0669005
1.499,-0.0164003
1.49925,-0.0440083
1.4995,-0.0392332
1.49975,-0.0307082
1.5,-0.0294575
1.50025,-0.0269506
1.5005,-0.0245993
1.50075,-0.0257828
1.501,-0.0278514
1.50125,-0.0197332
1.5015,-0.050929
1.50175,-0.0164648
1.502,-8.24E-03
1.50225,-0.0341431
1.5025,-0.0486696
1.50275,-0.015625
1.503,-0.0138405
1.50325,-0.0779086
1.5035,-0.0388459
1.50375,-0.0474546
1.504,-0.0871346
1.50425,-0.064505
1.5045,-0.0829683
1.50475,-0.122338
1.505,-0.0451738
1.50525,-0.0693524
1.5055,-0.0870792
1.50575,-0.106568
1.506,-0.103371
1.50625,-0.103652
1.5065,-0.0751917
1.50675,-0.0704907
1.507,-0.0240443
1.50725,-0.031896
1.5075,-0.019217
1.50775,-0.0213543
1.508,-0.016847
1.50825,-0.0043617
1.5085,0.000844271
1.50875,0.0196081
1.509,0.0306549
1.50925,0.0304416
1.5095,0.0580145
1.50975,0.109059
1.51,0.0968488
1.51025,0.0378566
1.5105,0.0674268
1.51075,0.0580229
1.511,0.138452
1.51125,0.0477137
1.5115,0.11382
1.51175,0.0965318
1.512,0.098074
1.51225,0.0310179
1.5125,0.00655485
1.51275,0.0325165
1.513,0.0627064
1.51325,0.0016596
1.5135,-0.0306283
1.51375,0.0087162
1.514,0.0262882
1.51425,-0.0179362
1.5145,-0.028217
1.51475,0.00173123
1.515,-0.0497298
1.51525,-0.0359889
1.5155,-0.049952
1.51575,-0.0203142
1.516,-0.0133296
1.51625,-0.0461663
1.5165,-0.0364814
1.51675,-0.00810849
1.517,-0.0244515
1.51725,0.00709497
1.5175,-0.031165
1.51775,0.0188031
1.518,0.0362746
1.51825,-0.00969199
1.5185,-0.0470801
1.51875,0.021278
1.519,0.0228383
1.51925,-0.0120299
1.5195,-0.0190264
1.51975,0.0331008
1.52,-0.0761073
1.52025,0.00234954
1.5205,-0.0523549
1.52075,-0.0500142
1.521,0.00144118
1.52125,-0.0497836
1.5215,-0.018906
1.52175,-0.038442
1.522,-0.0325823
1.52225,-0.0646474
1.5225,-0.0502538
1.52275,-0.0441306
1.523,0.00894985
1.52325,-0.0290024
1.5235,0.00224405
1.52375,0.030695
1.524,-0.0259142
1.52425,-0.0128384
1.5245,0.0142837
1.52475,0.066102
1.525,0.073459
1.52525,0.0557437
1.5255,0.111806
1.52575,0.0714774
1.526,0.114389
1.52625,0.108399
1.5265,0.150567
1.52675,0.0902088
1.527,0.0951694
1.52725,0.104186
1.5275,0.0998616
1.52775,0.0286668
1.528,0.117097
1.52825,0.103967
1.5285,0.0434234
1.52875,0.0710421
1.529,0.0598368
1.52925,0.0600732
1.5295,0.0183035
1.52975,0.0418894
1.53,0.0374248
1.53025,-0.00483675
1.5305,-0.021669
1.53075,-0.0172469
1.531,-0.0115
1.53125,-0.0128624
1.5315,-0.0260093
1.53175,-0.053839
1.532,-0.0288974
1.53225,-0.0352253
1.5325,-0.0485144
1.53275,-0.0106399
1.533,-0.0392835
1.53325,-0.00371229
1.5335,0.02687
1.53375,-5.73E-05
1.534,0.0182591
1.53425,0.00238571
1.5345,0.0584668
1.53475,0.0166391
1.535,0.00127007
1.53525,-0.0147422
1.5355,0.0776771
1.53575,0.04564
1.536,0.0490177
1.53625,0.0251026
1.5365,0.00856135
1.53675,0.0209299
1.537,0.0403193
1.53725,0.00879022
1.5375,0.0113933
1.53775,0.00979757
1.538,0.00147716
1.53825,0.00590737
1.5385,-0.014292
1.53875,-0.00414578
1.539,0.00599679
1.53925,0.0183657
1.5395,-0.0147638
1.53975,-0.00335053
1.54,0.00652226
1.54025,0.0632485
1.5405,0.0216547
1.54075,0.0541846
1.541,0.0791087
1.54125,0.056048
1.5415,0.0867371
1.54175,0.119486
1.542,0.0468837
1.54225,0.132696
1.5425,0.12515
1.54275,0.11264
1.543,0.12298
1.54325,0.11972
1.5435,0.109978
1.54375,0.144949
1.544,0.133622
1.54425,0.147601
1.5445,0.0915975
1.54475,0.110372
1.545,0.0740992
1.54525,0.0593245
1.5455,0.0503857
1.54575,0.0450006
1.546,0.0323143
1.54625,0.0216177
1.5465,0.00948758
1.54675,0.0236863
1.547,-0.046248
1.54725,-0.0475113
1.5475,-0.0277824
1.54775,-0.0838845
1.548,-0.0167017
1.54825,-0.0517907
1.5485,-0.0562414
1.54875,0.00801363
1.549,-0.0664426
1.54925,-0.0226068
1.5495,0.00136417
1.54975,-0.0271681
1.55,-0.0459489
1.55025,-0.0313333
1.5505,0.0146964
1.55075,0.0376228
1.551,0.0269075
1.55125,0.0452112
1.5515,0.0219523
1.55175,0.0315868
1.552,0.0157872
1.55225,0.0387698
1.5525,0.0397142
1.55275,0.0135184
1.553,0.0212808
1.55325,0.0733259
1.5535,0.0412168
1.55375,0.0383686
1.554,0.0466149
1.55425,0.0349635
1.5545,0.0410091
1.55475,0.0452351
1.555,0.0480079
1.55525,0.0556392
1.5555,0.0122208
1.55575,0.0631941
1.556,-0.00906139
1.55625,0.0503875
1.5565,0.0386115
1.55675,0.062651
1.557,0.104979
1.55725,0.0679419
1.5575,0.0765249
1.55775,0.0675294
1.558,0.104165
1.55825,0.125082
1.5585,0.0372847
1.55875,0.134476
1.559,0.10464
1.55925,0.0995096
1.5595,0.110182
1.55975,0.0608008
1.56,0.059562
1.56025,0.0532973
1.5605,0.083879
1.56075,0.0926735
1.561,0.0969258
1.56125,0.0551866
1.5615,0.04907
1.56175,0.0435558
1.562,0.0386427
1.56225,0.0342005
1.5625,0.0127398
1.56275,0.0115644
1.563,-0.0104944
1.56325,-0.0507253
1.5635,-0.0687907
1.56375,-0.06741
1.564,-0.0867573
1.56425,-0.124507
1.5645,-0.0796041
1.56475,-0.0480333
1.565,0.00707465
1.56525,-0.085613
1.5655,-0.0337578
1.56575,-0.0515461
1.566,-0.0409964
1.56625,-0.0824417
1.5665,-0.0275831
1.56675,0.0115405
1.567,-0.0218567
1.56725,0.00907152
1.5675,-0.0167309
1.56775,-0.00819866
1.568,0.0569528
1.56825,0.0484709
1.5685,0.0508728
1.56875,0.0835422
1.569,0.049564
1.56925,0.0637148
1.5695,0.0890569
1.56975,0.0819414
1.57,0.0374069
1.57025,0.0683548
1.5705,0.0776095
1.57075,0.0796433
1.571,0.0829966
1.57125,0.0394087
1.5715,0.0662103
1.57175,0.0353665
1.572,0.0313585
1.57225,0.0925203
1.5725,0.00542852
1.57275,0.0509127
1.573,0.0919955
1.57325,0.00749688
1.5735,0.064564
1.57375,-0.00440863
1.574,0.0201096
1.57425,0.0495007
1.5745,0.0561254
1.57475,0.0239558
1.575,0.0912251
1.57525,0.0412184
1.5755,0.0712276
1.57575,0.041344
1.576,0.0935497
1.57625,0.0568405
1.5765,0.0468996
1.57675,0.0602147
1.577,0.0249782
1.57725,0.0144731
1.5775,0.0624039
1.57775,0.0691144
1.578,-0.0175099
1.57825,-0.0112691
1.5785,-0.0103522
1.57875,-0.00183483
1.579,0.00743712
1.57925,-0.0506139
1.5795,0.011604
1.57975,-0.0241784
1.58,-0.0995301
1.58025,-0.0975167
1.5805,-0.0215642
1.58075,-0.0819384
1.581,-0.0126937
1.58125,-0.0183671
1.5815,-0.0915672
1.58175,-0.0784159
1.582,-9.51E-03
1.58225,-0.0516213
1.5825,-0.0617062
1.58275,-0.049344
1.583,-0.0573575
1.58325,-0.0214527
1.5835,-0.00264833
1.58375,0.000768874
1.584,0.0158474
1.58425,0.0412965
1.5845,0.0236776
1.58475,0.0681404
1.585,0.0284936
1.58525,0.0685069
1.5855,0.0907199
1.58575,0.114163
1.586,0.0967117
1.58625,0.0951252
1.5865,0.0953415
1.58675,0.0752398
1.587,0.0673126
1.58725,0.0303399
1.5875,0.0876985
1.58775,0.0384189
1.588,0.0304591
1.58825,0.00262739
1.5885,0.0131382
1.58875,0.0760608
1.589,0.042144
1.58925,0.0429664
1.5895,0.00818024
1.58975,-0.0349798
1.59,0.00574632
1.59025,0.0254097
1.5905,0.00453948
1.59075,0.0437836
1.591,0.0209277
1.59125,0.0184524
1.5915,0.0194984
1.59175,0.0240916
1.592,0.0237746
1.59225,0.0314052
1.5925,0.0276962
1.59275,0.0377211
1.593,0.00347915
1.59325,-0.0255646
1.5935,0.0075885
1.59375,0.0265051
1.594,0.0136986
1.59425,0.0102071
1.5945,-0.00388599
1.59475,0.000222775
1.595,-0.0431238
1.59525,0.00725814
1.5955,-0.00573958
1.59575,-0.0519018
1.596,-0.0422644
1.59625,-0.029273
1.5965,-0.0294062
1.59675,-0.00266534
1.597,-0.101305
1.59725,-0.0694691
1.5975,-0.0502051
1.59775,-0.0519489
1.598,-0.126049
1.59825,-0.0346238
1.5985,-0.0115718
1.59875,-0.0493121
1.599,-0.0320693
1.59925,-0.0239694
1.5995,-0.0279824
1.59975,-0.00588715
1.6,0.00360655
1.60025,0.0148501
1.6005,0.0414387
1.60075,0.0342728
1.601,0.0250707
1.60125,0.0107233
1.6015,0.0798168
1.60175,0.0341536
1.602,0.0952275
1.60225,0.150253
1.6025,0.116671
1.60275,0.0777523
1.603,0.10235
1.60325,0.0432199
1.6035,0.10891
1.60375,0.0306236
1.604,0.0580681
1.60425,0.0147085
1.6045,0.0614628
1.60475,0.040873
1.605,0.060608
1.60525,0.00211975
1.6055,0.0501101
1.60575,-0.00279656
1.606,-0.0268625
1.60625,-0.0103055
1.6065,-0.0226183
1.60675,0.0102977
1.607,-0.039392
1.60725,-0.0132741
1.6075,-0.0317516
1.60775,-0.0328973
1.608,-0.0168388
1.60825,-0.0188544
1.6085,-0.0104744
1.60875,-0.00760165
1.609,-0.00995447
1.60925,0.0143314
1.6095,-0.00803855
1.60975,-0.00859643
1.61,0.0543658
1.61025,0.0542896
1.6105,0.0132715
1.61075,-0.0535094
1.611,-0.0645671
1.61125,-0.0422917
1.6115,0.00324576
1.61175,-0.0533862
1.612,-0.0634291
1.61225,-0.0600515
1.6125,-0.0174707
1.61275,-0.0981385
1.613,-0.036148
1.61325,-0.0417258
1.6135,-0.0603728
1.61375,-0.0718394
1.614,-0.0970978
1.61425,-0.0716115
1.6145,-0.044337
1.61475,-0.0930212
1.615,-0.0208039
1.61525,-0.0379691
1.6155,-0.0195333
1.61575,-0.0177791
1.616,-0.0376386
1.61625,-0.00115824
1.6165,-0.00180775
1.61675,0.0386003
1.617,0.0323013
1.61725,0.0373721
1.6175,0.0383693
1.61775,0.0672201
1.618,0.0907687
1.61825,0.108368
1.6185,0.143524
1.61875,0.0759261
1.619,0.069066
1.61925,0.0728961
1.6195,0.0977473
1.61975,0.113185
1.62,0.00190407
1.62025,0.0565724
1.6205,0.0470696
1.62075,0.0513315
1.621,0.00239121
1.62125,-0.00772724
1.6215,-0.0110261
1.62175,-0.0244535
1.622,-0.00381987
1.62225,-0.0563143
1.6225,-0.0248739
1.62275,-0.0270695
1.623,-0.02938
1.62325,-0.0820525
1.6235,-0.0181703
1.62375,-0.0384763
1.624,-0.0334526
1.62425,-0.0498044
1.6245,-0.0488366
1.62475,-0.0749685
1.625,-0.06316
1.62525,-0.0454904
1.6255,-0.0650096
1.62575,-0.0230445
1.626,0.0164512
1.62625,0.0196787
1.6265,-0.0513978
1.62675,0.00329239
1.627,-0.0448497
1.62725,-0.0672934
1.6275,-0.0496567
1.62775,-0.0716419
1.628,-0.0463645
1.62825,0.00079012
1.6285,-0.00751862
1.62875,-0.0113049
1.629,-0.0478023
1.62925,-0.0506111
1.6295,-0.0138616
1.62975,-0.070623
1.63,-0.0473725
1.63025,-0.0637351
1.6305,-0.0555624
1.63075,-0.0338523
1.631,-0.0676191
1.63125,-0.0450726
1.6315,0.016233
1.63175,-0.00158484
1.632,-0.0554644
1.63225,-0.00347234
1.6325,0.0237157
1.63275,0.0181634
1.633,0.0070169
1.63325,0.024599
1.6335,0.0269105
1.63375,0.0773395
1.634,0.0275815
1.63425,0.0436414
1.6345,0.030994
1.63475,0.0492714
1.635,0.12649
1.63525,0.0241331
1.6355,0.0749311
1.63575,0.0504667
1.636,0.00383961
1.63625,0.0506783
1.6365,0.0596734
1.63675,0.0696104
1.637,0.051084
1.63725,-0.00171514
1.6375,-0.000826629
1.63775,-0.00847024
1.638,-0.0144819
1.63825,-0.01416
1.6385,-0.0192726
1.63875,-0.0213589
1.639,-0.038589
1.63925,-0.055483
1.6395,-0.0871159
1.63975,-0.114263
1.64,-0.0555227
1.64025,-0.067651
1.6405,-0.0640941
1.64075,-0.0822555
1.641,-0.0959019
1.64125,-0.046602
1.6415,-0.0630387
1.64175,-0.0576636
1.642,-0.0701274
1.64225,-0.0401377
1.6425,0.000590645
1.64275,-0.0406549
1.643,-0.00394285
1.64325,-0.0670919
1.6435,-0.0263846
1.64375,-0.00613309
1.644,-0.0614098
1.64425,0.000641712
1.6445,-0.00954876
1.64475,-0.0146181
1.645,-0.00329091
1.64525,-0.0185337
1.6455,-0.0367102
1.64575,-0.023565
1.646,-0.0196443
1.64625,-0.0258364
1.6465,-0.0133862
1.64675,-0.0394657
1.647,-0.0313458
1.64725,-0.0267417
1.6475,-0.0543831
1.64775,0.00187269
1.648,-0.020657
1.64825,-0.00635816
1.6485,0.00180576
1.64875,0.0297865
1.649,-0.0506345
1.64925,0.0340668
1.6495,0.0066105
1.64975,0.0362948
1.65,0.017161
1.65025,0.0798181
1.6505,0.0337891
1.65075,-0.00418706
1.651,0.0726818
1.65125,0.0857865
1.6515,0.0247909
1.65175,0.0988933
1.652,0.0591155
1.65225,0.0387703
1.6525,0.0739374
1.65275,0.0568796
1.653,0.0130635
1.65325,0.00892573
1.6535,0.0144716
1.65375,0.0125623
1.654,-0.0129499
1.65425,-2.74E-02
1.6545,-0.0315841
1.65475,-0.0680468
1.655,-0.0724563
1.65525,-0.0529513
1.6555,-0.0432095
1.65575,-0.0662097
1.656,-0.0932588
1.65625,-0.0504143
1.6565,-0.0774243
1.65675,-0.0882885
1.657,-0.145553
1.65725,-0.064802
1.6575,-0.113314
1.65775,-0.127712
1.658,-0.0346273
1.65825,-0.0822557
1.6585,-0.0695312
1.65875,-0.0497147
1.659,-0.0274677
1.65925,-0.0141132
1.6595,-0.0135781
1.65975,-0.00217643
1.66,2.99E-02
1.66025,-0.00402192
1.6605,0.0509176
1.66075,0.0278401
1.661,0.0195429
1.66125,0.0376328
1.6615,-0.00167789
1.66175,0.0183491
1.662,0.0329967
1.66225,0.0192213
1.6625,0.006586
1.66275,-0.00205279
1.663,0.00250354
1.66325,-0.00101887
1.6635,-0.0106456
1.66375,0.0382085
1.664,-0.0108381
1.66425,-0.06465
1.6645,-0.0412405
1.66475,0.0632486
1.665,0.0119166
1.66525,-0.0346713
1.6655,-0.00888636
1.66575,0.0651445
1.666,-0.00594002
1.66625,0.0416314
1.6665,0.0301721
1.66675,0.0719766
1.667,0.0562364
1.66725,0.0556511
1.6675,0.066955
1.66775,0.0508319
1.668,0.0547962
1.66825,0.0714186
1.6685,0.0421205
1.66875,0.0614547
1.669,0.0273189
1.66925,0.0435288
1.6695,0.0398239
1.66975,0.0199333
1.67,0.00709426
1.67025,-0.00756294
1.6705,-0.0263817
1.67075,-0.0471352
1.671,-0.0628081
1.67125,-0.087295
1.6715,-0.099017
1.67175,-0.0572408
1.672,-0.126702
1.67225,-0.046508
1.6725,-0.102486
1.67275,-0.0810453
1.673,-0.0409477
1.67325,-0.0691939
1.6735,-0.14597
1.67375,-0.117461
1.674,-0.0990346
1.67425,-0.122815
1.6745,-0.0773513
1.67475,-0.0465153
1.675,-0.0476041
1.67525,0.00138651
1.6755,-0.031582
1.67575,-0.0286826
1.676,0.0208184
1.67625,0.021064
1.6765,0.00146834
1.67675,0.0321353
1.677,0.0363733
1.67725,0.028407
1.6775,0.0236745
1.67775,0.0632158
1.678,0.0367164
1.67825,0.0410646
1.6785,0.0269666
1.67875,0.0603503
1.679,0.0312372
1.67925,0.0160584
1.6795,0.0483496
1.67975,0.00579353
1.68,0.0565552
1.68025,0.0637032
1.6805,0.0671697
1.68075,-0.00755998
1.681,0.045962
1.68125,0.0716478
1.6815,0.0362447
1.68175,-0.0158206
1.682,0.0031062
1.68225,0.0469048
1.6825,0.0349567
1.68275,-0.0246728
1.683,0.0268862
1.68325,0.0287187
1.6835,0.0470441
1.68375,0.0382969
1.684,0.0514128
1.68425,0.0327293
1.6845,0.00959414
1.68475,0.0312703
1.685,0.00844644
1.68525,0.0311516
1.6855,-0.00728545
1.68575,0.0279234
1.686,0.0585577
1.68625,0.00195075
1.6865,-0.00212167
1.68675,0.018555
1.687,-0.0184736
1.68725,-0.0277343
1.6875,-0.0613091
1.68775,-0.0416255
1.688,-0.11099
1.68825,-0.0508878
1.6885,-0.112477
1.68875,-0.142525
1.689,-0.0956557
1.68925,-0.0991909
1.6895,-0.0929219
1.68975,-0.127046
1.69,-0.0492066
1.69025,-0.028596
1.6905,-0.0778137
1.69075,-0.0823879
1.691,-0.0208015
1.69125,-0.0479044
1.6915,-0.0189893
1.69175,-0.00631817
1.692,-0.000130167
1.69225,0.0221842
1.6925,0.0383467
1.69275,0.0142335
1.693,0.0706786
1.69325,0.0742455
1.6935,0.0568236
1.69375,0.0841307
1.694,0.089055
1.69425,0.0593251
1.6945,0.12127
1.69475,0.105877
1.695,0.0897163
1.69525,0.038836
1.6955,0.0522649
1.69575,0.072669
1.696,0.0450055
1.69625,-0.00379011
1.6965,0.0208892
1.69675,0.0427724
1.697,-0.012077
1.69725,-0.0126649
1.6975,0.0184425
1.69775,-0.0257099
1.698,-0.00410621
1.69825,-0.0417924
1.6985,-4.11E-02
1.69875,0.00132892
1.699,-0.00903438
1.69925,0.00043499
1.6995,-0.0137438
1.69975,-0.00446581
1.7,0.00139535
1.70025,0.00288705
1.7005,0.00698398
1.70075,0.00913222
1.701,0.0108616
1.70125,0.00806983
1.7015,0.0120165
1.70175,-0.0410936
1.702,-0.00390114
1.70225,-0.0100215
1.7025,-0.0498843
1.70275,-0.0111103
1.703,0.0432426
1.70325,-0.0779217
1.7035,-0.0619246
1.70375,-0.0395522
1.704,-0.071332
1.70425,-0.0260787
1.7045,-0.0479597
1.70475,-0.0253046
1.705,-0.0955768
1.70525,-0.0946835
1.7055,-0.0485205
1.70575,-0.114887
1.706,-0.0657897
1.70625,-0.0450835
1.7065,-0.0577164
1.70675,-0.0791484
1.707,-0.0361188
1.70725,-0.0271618
1.7075,-0.0121168
1.70775,-0.0215307
1.708,-0.00141328
1.70825,0.0144179
1.7085,0.0257884
1.70875,1.03E-02
1.709,0.0573754
1.70925,0.0414471
1.7095,0.0389519
1.70975,0.0257969
1.71,0.0918716
1.71025,0.054134
1.7105,0.0563193
1.71075,0.133812
1.711,0.0911225
1.71125,0.0734715
1.7115,0.0826273
1.71175,0.0920979
1.712,0.0474414
1.71225,0.0326063
1.7125,0.0322
1.71275,0.0491578
1.713,0.0359271
1.71325,0.049784
1.7135,-0.00811553
1.71375,-0.022485
1.714,-0.0287065
1.71425,0.00764439
1.7145,-0.0515979
1.71475,-5.31E-05
1.715,-0.039904
1.71525,-0.0202082
1.7155,-0.042431
1.71575,-0.0385614
1.716,-0.00732581
1.71625,-0.0334385
1.7165,-0.0333883
1.71675,-0.0166484
1.717,-0.0233713
1.71725,-0.0519286
1.7175,-0.0276179
1.71775,0.00744439
1.718,-0.0669542
1.71825,0.0404873
1.7185,0.0133458
1.71875,-0.0218451
1.719,-0.0422221
1.71925,0.0169511
1.7195,-0.0332851
1.71975,-0.0577606
1.72,-0.0662772
1.72025,0.016549
1.7205,-0.000476455
1.72075,-0.0170664
1.721,-0.0260841
1.72125,-0.023798
1.7215,-0.0762849
1.72175,-0.0174607
1.722,-0.0544053
1.72225,-0.0424573
1.7225,-0.0321565
1.72275,-0.0155512
1.723,0.000330114
1.72325,-0.0178018
1.7235,-0.0506892
1.72375,-0.0351183
1.724,-0.0413338
1.72425,0.0162679
1.7245,0.000847415
1.72475,0.0125494
1.725,0.0516274
1.72525,0.0684157
1.7255,0.0727153
1.72575,0.0757823
1.726,0.0475846
1.72625,0.0547384
1.7265,0.0756949
1.72675,0.0530732
1.727,0.150702
1.72725,0.0995644
1.7275,0.0683363
1.72775,0.0292132
1.728,0.0993451
1.72825,0.121522
1.7285,0.0453956
1.72875,0.0535272
1.729,0.0674231
1.72925,0.0135504
1.7295,0.0312808
1.72975,0.0136117
1.73,-0.0134516
1.73025,-0.000656453
1.7305,-0.0371933
1.73075,-0.0364357
1.731,-0.0530145
1.73125,-0.00209728
1.7315,-0.0630775
1.73175,-0.00785813
1.732,-0.0381038
1.73225,-0.0743846
1.7325,-0.0530058
1.73275,-0.0306906
1.733,-0.0118631
1.73325,-0.0535839
1.7335,-0.0504486
1.73375,-0.0696904
1.734,-0.054152
1.73425,0.00872191
1.7345,-0.0371792
1.73475,-0.00766677
1.735,0.0245382
1.73525,-0.0213225
1.7355,0.0711377
1.73575,-0.0192468
1.736,0.0265804
1.73625,0.0240343
1.7365,0.00711496
1.73675,0.0063983
1.737,-0.0375373
1.73725,-0.0247062
1.7375,-0.0140228
1.73775,-0.0150754
1.738,-0.0231304
1.73825,-0.0392656
1.7385,-0.0449762
1.73875,-0.0511344
1.739,-0.0276718
1.73925,0.0237882
1.7395,-0.0215623
1.73975,0.0451614
1.74,-0.0128167
1.74025,0.0610471
1.7405,0.035292
1.74075,0.0223541
1.741,0.0709181
1.74125,0.062351
1.7415,0.0172223
1.74175,0.0373716
1.742,0.0438897
1.74225,0.0457522
1.7425,0.138559
1.74275,0.0475214
1.743,0.0812296
1.74325,0.019066
1.7435,0.0323995
1.74375,0.0915455
1.744,0.054312
1.74425,0.0788268
1.7445,0.109295
1.74475,0.035631
1.745,0.0696718
1.74525,0.0342405
1.7455,0.0171822
1.74575,0.0202539
1.746,0.00139859
1.74625,-0.0115782
1.7465,-0.00647399
1.74675,-5.80E-02
1.747,-0.043371
1.74725,-0.0781855
1.7475,-0.0587374
1.74775,-0.0697752
1.748,-0.0510818
1.74825,-0.0539805
1.7485,-0.0859955
1.74875,-0.0959682
1.749,-0.0764172
1.74925,-0.105272
1.7495,-0.0232874
1.74975,-0.0976809
1.75,-0.0184129
1.75025,-0.0594922
1.7505,0.0155096
1.75075,-0.00777214
1.751,-0.0470473
1.75125,-0.0436808
1.7515,0.00104737
1.75175,0.00399972
1.752,-0.0440397
1.75225,0.031575
1.7525,0.00309635
1.75275,0.0457966
1.753,0.0397425
1.75325,-0.00664866
1.7535,0.0297361
1.75375,0.00760861
1.754,0.0135199
1.75425,0.00490556
1.7545,0.0117834
1.75475,-0.000355213
1.755,-0.0223019
1.75525,-0.000524414
1.7555,0.00546364
1.75575,0.029633
1.756,0.00171829
1.75625,0.00654535
1.7565,0.0284325
1.75675,0.021591
1.757,0.0355032
1.75725,0.00370563
1.7575,3.59E-02
1.75775,0.00635666
1.758,0.069915
1.75825,0.0191103
1.7585,0.0626561
1.75875,0.0883417
1.759,0.107691
1.75925,0.0928961
1.7595,0.0743271
1.75975,0.0306882
1.76,0.116199
1.76025,0.0583031
1.7605,0.0717328
1.76075,0.0798957
1.761,0.0642207
1.76125,0.0634425
1.7615,0.00800885
1.76175,0.0247818
1.762,0.00262072
1.76225,-0.00319036
1.7625,-0.0331594
1.76275,-0.0454811
1.763,-0.0679825
1.76325,-0.0784819
1.7635,-0.0325385
1.76375,-0.119161
1.764,-0.0644098
1.76425,-0.10168
1.7645,-0.114782
1.76475,-0.0606645
1.765,-0.113244
1.76525,-0.0850611
1.7655,-0.0812128
1.76575,-0.0722934
1.766,-0.0736755
1.76625,-0.0274198
1.7665,-0.0300266
1.76675,-0.0189689
1.767,-0.0403628
1.76725,0.00745845
1.7675,-0.0527791
1.76775,0.0104089
1.768,0.0028634
1.76825,0.0336929
1.7685,0.0144587
1.76875,0.0216988
1.769,0.0539741
1.76925,0.0303112
1.7695,0.0188669
1.76975,0.0065226
1.77,0.0270644
1.77025,0.0491643
1.7705,0.0381469
1.77075,0.035144
1.771,0.0420346
1.77125,-0.00105202
1.7715,-0.00888145
1.77175,0.0402484
1.772,0.0191618
1.77225,0.0440731
1.7725,0.0380738
1.77275,0.0138679
1.773,0.0484415
1.77325,-0.0350107
1.7735,0.0532478
1.77375,0.0705382
1.774,0.0848695
1.77425,0.0154301
1.7745,0.0582828
1.77475,0.0363224
1.775,0.0403559
1.77525,0.0102951
1.7755,0.0275396
1.77575,0.05184
1.776,0.0652785
1.77625,0.0617925
1.7765,0.0306082
1.77675,0.0216904
1.777,0.0458609
1.77725,-0.00460953
1.7775,0.0246708
1.77775,-0.0188203
1.778,0.0259642
1.77825,0.041141
1.7785,-0.0338524
1.77875,-0.010449
1.779,-0.0580484
1.77925,-0.0297342
1.7795,-0.0749221
1.77975,-0.0808789
1.78,-0.105129
1.78025,-0.107497
1.7805,-0.111959
1.78075,-0.107949
1.781,-0.107336
1.78125,-0.0246879
1.7815,-0.15418
1.78175,-0.0623034
1.782,-0.0815875
1.78225,-0.0648516
1.7825,-0.0462709
1.78275,-0.0836565
1.783,-0.0396015
1.78325,-0.0320187
1.7835,-0.0162743
1.78375,0.00952941
1.784,-0.0127135
1.78425,0.000852551
1.7845,0.0119659
1.78475,0.0595107
1.785,0.0353574
1.78525,0.0410581
1.7855,0.037057
1.78575,0.0422833
1.786,0.0480914
1.78625,0.0107561
1.7865,0.0272877
1.78675,0.0599575
1.787,0.0468797
1.78725,0.0502114
1.7875,0.0152695
1.78775,0.0465941
1.788,0.0058739
1.78825,0.0563751
1.7885,0.00693012
1.78875,-0.0167117
1.789,-0.0416747
1.78925,0.0196181
1.7895,-0.0161958
1.78975,0.00802531
1.79,-0.0355404
1.79025,0.0311122
1.7905,-0.00911826
1.79075,0.0181888
1.791,0.00231181
1.79125,0.0192128
1.7915,0.0226803
1.79175,0.00330942
1.792,0.0126706
1.79225,0.0255456
1.7925,-0.00309621
1.79275,-0.0109877
1.793,-0.0236972
1.79325,0.0398673
1.7935,0.00734363
1.79375,-0.00734485
1.794,-0.0277053
1.79425,0.0089924
1.7945,0.00379985
1.79475,-0.0200092
1.795,-0.0341569
1.79525,-0.00354277
1.7955,-0.0212434
1.79575,-0.0161259
1.796,-0.0649183
1.79625,-0.0342978
1.7965,-0.0786896
1.79675,-0.0575895
1.797,-0.0658167
1.79725,-0.0722969
1.7975,-0.0267524
1.79775,-0.0858583
1.798,-0.0425042
1.79825,-0.122745
1.7985,-0.0167554
1.79875,-0.0159245
1.799,-0.0391384
1.79925,-0.0574351
1.7995,-0.0310856
1.79975,-0.00616359
1.8,-0.000685857
1.80025,0.0181786
1.8005,0.00391751
1.80075,0.0523568
1.801,0.0749068
1.80125,0.032007
1.8015,0.0679247
1.80175,0.102481
1.802,0.129416
1.80225,0.0985575
1.8025,0.0339675
1.80275,0.0512878
1.803,0.00282163
1.80325,0.0762401
1.8035,0.0278698
1.80375,0.0610913
1.804,0.103494
1.80425,0.0433068
1.8045,0.0358057
1.80475,0.00392798
1.805,0.0453813
1.80525,0.0459864
1.8055,0.00525519
1.80575,0.0024253
1.806,4.01E-02
1.80625,-0.0209009
1.8065,-0.0384164
1.80675,-0.0382499
1.807,0.0225593
1.80725,0.01061
1.8075,-0.0198128
1.80775,-3.32E-02
1.808,-0.0218572
1.80825,-0.01341
1.8085,-0.0220312
1.80875,-0.0228626
1.809,0.0172146
1.80925,0.000811054
1.8095,0.00671882
1.80975,0.025056
1.81,-0.0459442
1.81025,0.0120375
1.8105,3.58E-02
1.81075,0.0587886
1.811,-0.000993527
1.81125,-0.0444741
1.8115,0.0104827
1.81175,0.00511676
1.812,-0.0754845
1.81225,-0.0050663
1.8125,-0.0672034
1.81275,-0.0608049
1.813,-0.0479068
1.81325,-0.0541469
1.8135,-0.0260268
1.81375,-0.0532089
1.814,-0.0713426
1.81425,-0.0159238
1.8145,-0.0528089
1.81475,-0.0792277
1.815,-0.0704312
1.81525,-0.0381681
1.8155,-0.0107871
1.81575,-0.0271217
1.816,-0.013295
1.81625,0.000794085
1.8165,0.0134596
1.81675,0.0146536
1.817,0.017059
1.81725,0.0580979
1.8175,0.0753779
1.81775,0.0227182
1.818,0.0890887
1.81825,0.021601
1.8185,0.0969706
1.81875,0.030868
1.819,0.0404352
1.81925,0.0129814
1.8195,0.0775547
1.81975,0.052963
1.82,0.0493075
1.82025,0.0832109
1.8205,0.0360016
1.82075,0.0283942
1.821,0.0648163
1.82125,0.0421946
1.8215,0.0213904
1.82175,-0.00949289
1.822,0.00462504
1.82225,0.0250535
1.8225,0.00543578
1.82275,-0.0500011
1.823,-0.0637009
1.82325,-0.0647957
1.8235,-0.0187524
1.82375,-0.050281
1.824,-0.0213805
1.82425,-0.0145545
1.8245,-0.019602
1.82475,-0.0285768
1.825,-0.0341005
1.82525,-0.0450317
1.8255,-0.0353376
1.82575,-0.0182496
1.826,-0.00776142
1.82625,-0.0314114
1.8265,0.0327308
1.82675,0.0172625
1.827,0.0496348
1.82725,0.0477593
1.8275,-0.0277932
1.82775,-0.042291
1.828,-0.0401485
1.82825,-0.0609479
1.8285,-0.0515827
1.82875,0.0037799
1.829,-0.0464241
1.82925,-0.0558994
1.8295,-0.0487978
1.82975,-0.0296606
1.83,-0.0324101
1.83025,-0.0369088
1.8305,-0.0411852
1.83075,-0.0198782
1.831,-0.0138718
1.83125,-0.053436
1.8315,3.30E-05
1.83175,0.000105613
1.832,0.00689321
1.83225,-0.0108686
1.8325,0.0119399
1.83275,0.0255697
1.833,0.0476414
1.83325,0.0462111
1.8335,0.0307796
1.83375,0.0605222
1.834,0.0369548
1.83425,0.074233
1.8345,0.071519
1.83475,0.06075
1.835,0.0850977
1.83525,0.123357
1.8355,0.0443656
1.83575,0.140921
1.836,0.11496
1.83625,0.0255188
1.8365,0.0644536
1.83675,0.0425325
1.837,0.0322011
1.83725,0.0208352
1.8375,0.0120745
1.83775,0.0149503
1.838,-0.0177813
1.83825,-0.0217502
1.8385,-0.0351569
1.83875,-0.0273929
1.839,-0.0602717
1.83925,-0.0808852
1.8395,-0.0530966
1.83975,-0.0791142
1.84,-0.0496724
1.84025,-0.100886
1.8405,-0.0383574
1.84075,-0.0530711
1.841,-0.09515
1.84125,-0.0992795
1.8415,-0.0681914
1.84175,-0.0821269
1.842,-0.0173765
1.84225,-0.0546535
1.8425,0.021794
1.84275,0.0282481
1.843,-0.0299892
1.84325,0.00356575
1.8435,-0.0240114
1.84375,-0.00258656
1.844,-0.00988428
1.84425,0.022864
1.8445,0.0127417
1.84475,-0.00145781
1.845,0.0292325
1.84525,-0.00879262
1.8455,0.00486727
1.84575,-0.0127539
1.846,-0.00144815
1.84625,-0.0123902
1.8465,-0.00807173
1.84675,-0.0287586
1.847,-0.00342406
1.84725,-0.00404971
1.8475,-0.051806
1.84775,0.0105779
1.848,-0.0026005
1.84825,-0.0022067
1.8485,0.0107122
1.84875,0.0281431
1.849,0.00400162
1.84925,0.00135709
1.8495,0.0873564
1.84975,0.039354
1.85,0.0274772
1.85025,0.0727066
1.8505,0.0808427
1.85075,0.046289
1.851,0.0467471
1.85125,0.0687877
1.8515,0.0849201
1.85175,0.134101
1.852,0.0828202
1.85225,0.0686105
1.8525,0.0226992
1.85275,0.0645357
1.853,0.0196103
1.85325,0.0408185
1.8535,0.017009
1.85375,0.0138513
1.854,0.00160825
1.85425,-0.00356457
1.8545,-0.0186238
1.85475,-0.048752
1.855,-0.0314384
1.85525,-0.0335142
1.8555,-0.0554788
1.85575,-0.0728943
1.856,-0.145137
1.85625,-0.0547175
1.8565,-0.063836
1.85675,-0.118232
1.857,-0.0741218
1.85725,-0.00885061
1.8575,-0.0817353
1.85775,-0.103968
1.858,-0.0492215
1.85825,-0.0890957
1.8585,-0.026228
1.85875,-0.00943242
1.859,0.0286669
1.85925,0.0128849
1.8595,-0.0115514
1.85975,0.0404236
1.86,0.0572343
1.86025,0.0100938
1.8605,-0.0217287
1.86075,0.0255956
1.861,0.0567084
1.86125,0.0363454
1.8615,0.0182803
1.86175,0.0244092
1.862,0.024427
1.86225,0.00496916
1.8625,0.029061
1.86275,0.0203841
1.863,0.0222949
1.86325,-0.0135154
1.8635,-0.0242273
1.86375,0.029952
1.864,0.0662975
1.86425,-0.00646254
1.8645,-0.00906721
1.86475,-0.0245899
1.865,0.037289
1.86525,0.0323452
1.8655,0.0584602
1.86575,0.0231597
1.866,0.000338705
1.86625,0.0282568
1.8665,0.0293831
1.86675,0.0778591
1.867,0.0707529
1.86725,0.0839283
1.8675,0.0431754
1.86775,0.0598457
1.868,0.104444
1.86825,0.0460595
1.8685,0.0334604
1.86875,0.0217564
1.869,0.0450377
1.86925,0.0317752
1.8695,0.0313453
1.86975,0.0148046
1.87,-0.00223353
1.87025,-0.0178884
1.8705,0.00992002
1.87075,-0.0157484
1.871,-0.0534146
1.87125,-0.0230436
1.8715,-0.0633364
1.87175,-0.0835764
1.872,-0.0751401
1.87225,-0.0683439
1.8725,-0.0921252
1.87275,-0.104612
1.873,-0.132465
1.87325,-0.135734
1.8735,-0.140614
1.87375,-0.0760254
1.874,-0.0739167
1.87425,-0.0117024
1.8745,-0.0450998
1.87475,-0.022279
1.875,-0.0683363
1.87525,0.000858829
1.8755,-0.0247167
1.87575,-0.00885045
1.876,0.0341455
1.87625,0.0487218
1.8765,0.0324162
1.87675,0.0219818
1.877,0.0157368
1.87725,0.0272476
1.8775,0.0230204
1.87775,0.014559
1.878,0.0098712
1.87825,0.0622758
1.8785,0.0490917
1.87875,0.0439743
1.879,0.0197214
1.87925,0.0765273
1.8795,0.0388562
1.87975,0.0361443
1.88,0.0391007
1.88025,0.00479079
1.8805,-0.0282416
1.88075,0.0358887
1.881,0.0189058
1.88125,-0.0468159
1.8815,0.0578098
1.88175,0.0328923
1.882,-0.0269309
1.88225,0.00975368
1.8825,0.0192545
1.88275,-0.0228517
1.883,0.0349094
1.88325,0.00802446
1.8835,0.0213993
1.88375,0.0303747
1.884,0.0291595
1.88425,0.0150415
1.8845,0.0409789
1.88475,0.0141189
1.885,0.0648337
1.88525,0.0224131
1.8855,0.0131829
1.88575,0.0269248
1.886,-0.049546
1.88625,0.0408475
1.8865,-0.0233772
1.88675,-0.0251309
1.887,0.0151808
1.88725,-0.0740054
1.8875,-0.0294854
1.88775,-0.0789622
1.888,-0.0500376
1.88825,-0.1184
1.8885,-0.119187
1.88875,-0.1346
1.889,-0.0901877
1.88925,-0.102967
1.8895,-0.112001
1.88975,-0.134663
1.89,-0.0882853
1.89025,-0.0418946
1.8905,-0.0754925
1.89075,-0.0664071
1.891,-0.0514945
1.89125,-0.0417008
1.8915,-0.0151138
1.89175,-0.0103625
1.892,-0.00302484
1.89225,0.0129304
1.8925,0.0161988
1.89275,0.0491599
1.893,0.0124768
1.89325,0.0581304
1.8935,0.0649628
1.89375,0.0412162
1.894,0.0578589
1.89425,0.125405
1.8945,0.0586204
1.89475,0.104776
1.895,0.048407
1.89525,0.0376207
1.8955,0.0581517
1.89575,0.0785609
1.896,0.0682977
1.89625,0.0641774
1.8965,0.0071791
1.89675,0.0551138
1.897,0.000435974
1.89725,0.0197063
1.8975,0.00921654
1.89775,0.067663
1.898,-0.031846
1.89825,0.0159031
1.8985,-0.0361931
1.89875,0.0177517
1.899,-0.00743073
1.89925,-0.0307501
1.8995,0.00427953
1.89975,-0.00762997
1.9,9.36E-05
1.90025,-0.00489493
1.9005,-0.00454416
1.90075,0.0213734
1.901,-0.0159975
1.90125,-0.0196923
1.9015,0.0250898
1.90175,-0.0363203
1.902,0.0283608
1.90225,-0.0150704
1.9025,-0.0225993
1.90275,-0.0101419
1.903,-0.0796948
1.90325,0.0221279
1.9035,-0.0443958
1.90375,-8.01E-05
1.904,-0.0639033
1.90425,-0.0489018
1.9045,-0.019989
1.90475,-0.0447841
1.905,-0.0646136
1.90525,-0.122318
1.9055,-0.0724649
1.90575,-0.0837467
1.906,-0.0368717
1.90625,-0.00310127
1.9065,-0.0800236
1.90675,-0.0199649
1.907,-0.0498065
1.90725,-0.0362538
1.9075,-0.0304485
1.90775,-0.00239684
1.908,0.0101268
1.90825,0.0158708
1.9085,0.0166184
1.90875,0.0428977
1.909,0.0752352
1.90925,0.0548836
1.9095,0.0624381
1.90975,0.0695789
1.91,0.0276925
1.91025,0.126162
1.9105,0.016232
1.91075,0.0495976
1.911,0.115422
1.91125,0.0560237
1.9115,0.0594596
1.91175,0.0715079
1.912,0.0334479
1.91225,0.054074
1.9125,0.0759799
1.91275,0.0271033
1.913,0.0313115
1.91325,0.0115885
1.9135,0.05465
1.91375,0.0124066
1.914,0.00633175
1.91425,-0.0251884
1.9145,-0.0535686
1.91475,-0.0218904
1.915,-0.0485411
1.91525,-0.0343115
1.9155,-0.0459393
1.91575,-0.0398635
1.916,-0.0307948
1.91625,-0.0350277
1.9165,-0.040287
1.91675,-0.0103872
1.917,-0.0217002
1.91725,0.00336061
1.9175,-0.0047959
1.91775,-0.0502125
1.918,0.045494
1.91825,-0.0655253
1.9185,0.00631635
1.91875,0.000639403
1.919,0.0168256
1.91925,0.0196507
1.9195,0.0406681
1.91975,-0.0189671
1.92,0.0230712
1.92025,-0.0265415
1.9205,-0.0180827
1.92075,-0.0545904
1.921,-0.0670002
1.92125,-0.0362907
1.9215,-0.054296
1.92175,-0.076097
1.922,-0.0529968
1.92225,-0.0156644
1.9225,-0.0173073
1.92275,-0.0302268
1.923,-0.0555026
1.92325,-0.0599228
1.9235,-0.0490675
1.92375,-0.0320984
1.924,-0.0121047
1.92425,-0.0202566
1.9245,0.0347882
1.92475,0.0452279
1.925,0.0477337
1.92525,0.0130234
1.9255,0.0684867
1.92575,0.0440316
1.926,0.117545
1.92625,0.11636
1.9265,0.0910312
1.92675,0.0977564
1.927,0.127135
1.92725,0.084658
1.9275,0.0231409
1.92775,0.14152
1.928,0.0936704
1.92825,0.079064
1.9285,0.052146
1.92875,0.0255719
1.929,0.0700906
1.92925,0.037971
1.9295,0.0120675
1.92975,0.00134247
1.93,-0.00548041
1.93025,-0.00552223
1.9305,-0.0478893
1.93075,-0.0544968
1.931,-0.0647085
1.93125,-0.0417958
1.9315,-0.0845589
1.93175,-0.0230929
1.932,-0.068675
1.93225,-0.0436214
1.9325,-0.0511863
1.93275,-0.0318822
1.933,-0.0332246
1.93325,-0.0858139
1.9335,-0.0232184
1.93375,-0.0722108
1.934,-0.0328888
1.93425,-0.0529967
1.9345,-0.0759593
1.93475,0.00258662
1.935,0.0252648
1.93525,-0.00475565
1.9355,0.00435036
1.93575,-0.00414442
1.936,-0.0359928
1.93625,0.0077323
1.9365,-0.0136381
1.93675,0.00431033
1.937,0.00610974
1.93725,-0.0104925
1.9375,-0.00344999
1.93775,-0.01899
1.938,-0.0197458
1.93825,-0.0451666
1.9385,-0.0476382
1.93875,-0.0327639
1.939,-0.0286765
1.93925,-0.00836017
1.9395,-0.0352241
1.93975,-0.0345031
1.94,-0.0311464
1.94025,0.0422977
1.9405,-0.0135128
1.94075,0.027783
1.941,0.0185133
1.94125,0.0379665
1.9415,0.00363793
1.94175,0.0669531
1.942,0.0822175
1.94225,0.0500837
1.9425,0.0824661
1.94275,0.0801582
1.943,7.00E-02
1.94325,0.0159287
1.9435,0.0189195
1.94375,0.0645123
1.944,0.097536
1.94425,0.0545073
1.9445,0.0718655
1.94475,0.0364775
1.945,0.058611
1.94525,0.0350166
1.9455,0.0130447
1.94575,0.0120551
1.946,0.00224583
1.94625,-0.0090788
1.9465,-0.0158676
1.94675,-0.0355347
1.947,-0.0674577
1.94725,-0.10206
1.9475,-0.108418
1.94775,-0.0879386
1.948,-0.120408
1.94825,-0.0928369
1.9485,-0.080683
1.94875,-0.0934106
1.949,-0.0667361
1.94925,-0.034912
1.9495,-0.087921
1.94975,-0.102387
1.95,-0.0497564
1.95025,-0.0310452
1.9505,-0.0364386
1.95075,-0.0329924
1.951,-0.0862903
1.95125,0.00792432
1.9515,0.0276389
1.95175,0.000235429
1.952,0.0324662
1.95225,-0.00683753
1.9525,0.00253325
1.95275,0.00250389
1.953,0.0130634
1.95325,0.0100633
1.9535,0.00412621
1.95375,0.00711906
1.954,0.00539862
1.95425,0.00512043
1.9545,-7.91E-05
1.95475,0.00107309
1.955,0.00692617
1.95525,0.0481
1.9555,0.0320017
1.95575,0.0400759
1.956,0.0478802
1.95625,0.0135927
1.9565,0.0233282
1.95675,0.0640504
1.957,0.00903286
1.95725,0.0594875
1.9575,-0.000158055
1.95775,0.0112639
1.958,0.0984457
1.95825,0.0814353
1.9585,0.0215804
1.95875,0.0762016
1.959,0.0879929
1.95925,0.0544908
1.9595,0.0872502
1.95975,0.0987467
1.96,0.0848605
1.96025,0.0592112
1.9605,0.101624
1.96075,0.0120389
1.961,0.0196973
1.96125,0.0617751
1.9615,0.0332351
1.96175,0.0194376
1.962,0.012383
1.96225,-0.00964331
1.9625,-0.0268453
1.96275,-0.018935
1.963,-0.0704493
1.96325,-0.0691641
1.9635,-0.046955
1.96375,-0.0800512
1.964,-0.0895584
1.96425,-0.103059
1.9645,-0.0494384
1.96475,-0.0624243
1.965,-0.0571887
1.96525,-0.0254824
1.9655,-0.042756
1.96575,-0.0546696
1.966,-0.023601
1.96625,-0.104945
1.9665,-0.043118
1.96675,-0.0612662
1.967,-0.014826
1.96725,-0.0175201
1.9675,-0.00151616
1.96775,-0.000223334
1.968,-0.0116499
1.96825,0.054205
1.9685,0.0426663
1.96875,0.0367626
1.969,0.00584682
1.96925,0.0701477
1.9695,0.0270011
1.96975,0.0585288
1.97,0.0338583
1.97025,0.0393097
1.9705,0.0438759
1.97075,0.0471033
1.971,0.0519385
1.97125,0.0284996
1.9715,0.074475
1.97175,0.064246
1.972,0.0389451
1.97225,-7.80E-05
1.9725,0.0380096
1.97275,0.0360671
1.973,-0.0480108
1.97325,0.0424045
1.9735,0.0484493
1.97375,0.0601495
1.974,-0.000297991
1.97425,0.03956
1.9745,0.0378338
1.97475,0.0669753
1.975,0.0411697
1.97525,0.0279911
1.9755,0.0305589
1.97575,0.0223314
1.976,0.0790256
1.97625,0.0366324
1.9765,0.0809012
1.97675,0.0426457
1.977,0.0581292
1.97725,0.0687741
1.9775,0.0529764
1.97775,0.0617873
1.978,0.0286102
1.97825,-0.0100208
1.9785,-0.00357935
1.97875,-0.0540393
1.979,-0.0201813
1.97925,-0.0360896
1.9795,-0.029439
1.97975,-0.0219128
1.98,-0.126404
1.98025,-0.113698
1.9805,-0.111894
1.98075,-0.0720699
1.981,-0.0857465
1.98125,-0.0264546
1.9815,-0.0921916
1.98175,-0.121262
1.982,-0.0267157
1.98225,-0.0638075
1.9825,-0.0903924
1.98275,-0.0514281
1.983,-0.00162327
1.98325,-0.0221394
1.9835,0.00134285
1.98375,0.00965378
1.984,0.0246018
1.98425,0.0442618
1.9845,0.0215244
1.98475,0.0377089
1.985,0.0377749
1.98525,0.0517229
1.9855,0.0507163
1.98575,0.0476594
1.986,0.0375699
1.98625,0.0618445
1.9865,0.108049
1.98675,0.121459
1.987,0.106889
1.98725,0.0775843
1.9875,0.0772421
1.98775,0.0855757
1.988,0.0184338
1.98825,0.0454738
1.9885,0.0576005
1.98875,-0.021284
1.989,0.0747285
1.98925,0.0759388
1.9895,-0.0089486
1.98975,0.0171792
1.99,0.0164616
1.99025,0.0449215
1.9905,0.0221559
1.99075,0.0446449
1.991,0.0523221
1.99125,0.0426737
1.9915,0.0324786
1.99175,0.0329768
1.992,0.0363336
1.99225,0.0223174
1.9925,0.0326321
1.99275,0.0178536
1.993,0.038628
1.99325,0.00228056
1.9935,-0.0114152
1.99375,0.0378618
1.994,0.00854911
1.99425,0.0641185
1.9945,-0.00964833
1.99475,0.0631901
1.995,-0.0513502
1.99525,-0.0489208
1.9955,0.00988534
1.99575,-0.01046
1.996,0.0186164
1.99625,-0.0674355
1.9965,-0.0559005
1.99675,-0.061062
1.997,-0.0797919
1.99725,-0.0257905
1.9975,-0.0774203
1.99775,-0.0568804
1.998,-0.0722285
1.99825,-0.0959811
1.9985,-0.033989
1.99875,-0.0589269
1.999,-0.0116393
1.99925,-0.000985144
1.9995,0.0117782
