Time (s),Channel 1 (V)
0,0.0266701
0.00025,0.0381847
0.0005,0.0410648
0.00075,0.0528433
0.001,0.0886965
0.00125,0.0565567
0.0015,0.0614216
0.00175,0.0893047
0.002,0.107251
0.00225,0.134698
0.0025,0.0486668
0.00275,0.0868624
0.003,0.0880011
0.00325,0.102923
0.0035,0.101777
0.00375,0.048738
0.004,0.0404652
0.00425,0.125068
0.0045,0.0740171
0.00475,0.0555085
0.005,0.0553564
0.00525,0.0745741
0.0055,0.0501912
0.00575,0.0811529
0.006,0.0635616
0.00625,0.0475466
0.0065,0.0472567
0.00675,0.00839979
0.007,0.0828071
0.00725,0.0493273
0.0075,0.0271412
0.00775,0.048358
0.008,0.047482
0.00825,0.0543359
0.0085,0.043048
0.00875,0.0678241
0.009,0.0572887
0.00925,0.0891427
0.0095,0.0918826
0.00975,0.0849828
0.01,0.0498586
0.01025,0.0648566
0.0105,0.0773667
0.01075,0.0855805
0.011,0.0387232
0.01125,0.0368094
0.0115,-0.00136174
0.01175,0.00130126
0.012,0.00243512
0.01225,0.0175076
0.0125,0.0271649
0.01275,0.0150281
0.013,-0.0456868
0.01325,0.00639249
0.0135,-0.0192183
0.01375,-0.0353202
0.014,0.0253631
0.01425,-0.0135342
0.0145,-0.00890403
0.01475,0.0399749
0.015,0.00115042
0.01525,-0.00585033
0.0155,-0.040432
0.01575,0.0123209
0.016,0.00823661
0.01625,0.00886707
0.0165,0.0264743
0.01675,0.0585373
0.017,0.0626837
0.01725,0.0703726
0.0175,0.0937499
0.01775,0.0710877
0.018,0.118585
0.01825,0.10281
0.0185,0.117537
0.01875,0.0884882
0.019,0.111909
0.01925,0.104203
0.0195,0.155796
0.01975,0.115101
0.02,0.118514
0.02025,0.133836
0.0205,0.127386
0.02075,0.136837
0.021,0.137699
0.02125,0.114859
0.0215,0.0788605
0.02175,0.117712
0.022,0.024578
0.02225,0.110747
0.0225,0.095222
0.02275,0.067599
0.023,0.0939924
0.02325,0.0323313
0.0235,0.0298927
0.02375,0.14925
0.024,0.0690795
0.02425,0.0849896
0.0245,0.0948057
0.02475,0.135653
0.025,0.093251
0.02525,0.144935
0.0255,0.125285
0.02575,0.142584
0.026,0.13708
0.02625,0.117604
0.0265,0.130504
0.02675,0.125633
0.027,0.0972206
0.02725,0.151553
0.0275,0.0998976
0.02775,0.124144
0.028,0.0908937
0.02825,0.0726904
0.0285,0.0841558
0.02875,0.0859614
0.029,0.0833697
0.02925,0.0304544
0.0295,0.0451774
0.02975,0.0416519
0.03,0.0232183
0.03025,0.0254651
0.0305,0.0580096
0.03075,-0.00731364
0.031,0.0445409
0.03125,-0.00743499
0.0315,0.053365
0.03175,0.0976228
0.032,0.0148844
0.03225,0.0531733
0.0325,0.0531712
0.03275,-0.00190783
0.033,0.0719939
0.03325,0.0386413
0.0335,0.0500762
0.03375,0.0556361
0.034,0.0968113
0.03425,0.10277
0.0345,0.0870743
0.03475,0.147583
0.035,0.101693
0.03525,0.110469
0.0355,0.149444
0.03575,0.171844
0.036,0.131377
0.03625,0.168389
0.0365,0.170605
0.03675,0.151591
0.037,0.15606
0.03725,0.158748
0.0375,0.152439
0.03775,0.161083
0.038,0.122023
0.03825,0.170394
0.0385,0.0947417
0.03875,0.169508
0.039,0.110863
0.03925,0.107671
0.0395,0.0735927
0.03975,0.198002
0.04,0.195333
0.04025,0.167568
0.0405,0.150412
0.04075,0.145891
0.041,0.132096
0.04125,0.192699
0.0415,0.157177
0.04175,0.221374
0.042,0.242473
0.04225,0.195836
0.0425,0.209248
0.04275,0.226078
0.043,0.215439
0.04325,0.228896
0.0435,0.203072
0.04375,0.248395
0.044,0.23059
0.04425,0.177839
0.0445,0.182248
0.04475,0.208114
0.045,0.201373
0.04525,0.198144
0.0455,0.174256
0.04575,0.163891
0.046,0.163298
0.04625,0.131427
0.0465,0.141673
0.04675,0.159289
0.047,0.103842
0.04725,0.0960633
0.0475,0.139943
0.04775,0.156593
0.048,0.111711
0.04825,0.138775
0.0485,0.0991068
0.04875,0.15266
0.049,0.0555284
0.04925,0.154088
0.0495,0.162719
0.04975,0.13526
0.05,0.163172
0.05025,0.201317
0.0505,0.133157
0.05075,0.139531
0.051,0.121539
0.05125,0.117635
0.0515,0.156493
0.05175,0.147397
0.052,0.188937
0.05225,0.201075
0.0525,0.216527
0.05275,0.184797
0.053,0.233905
0.05325,0.233521
0.0535,0.197497
0.05375,0.190289
0.054,0.211195
0.05425,0.204183
0.0545,0.199218
0.05475,0.211935
0.055,0.219935
0.05525,0.213816
0.0555,0.17951
0.05575,0.191664
0.056,0.241014
0.05625,0.202235
0.0565,0.269953
0.05675,0.241455
0.057,0.222617
0.05725,0.29332
0.0575,0.260243
0.05775,0.253054
0.058,0.263917
0.05825,0.324523
0.0585,0.270333
0.05875,0.297834
0.059,0.298577
0.05925,0.315284
0.0595,0.30791
0.05975,0.317488
0.06,0.36488
0.06025,0.365432
0.0605,0.369862
0.06075,0.341337
0.061,0.323216
0.06125,0.305936
0.0615,0.310726
0.06175,0.300181
0.062,0.324893
0.06225,0.280362
0.0625,0.268824
0.06275,0.271687
0.063,0.270671
0.06325,0.267032
0.0635,0.241616
0.06375,0.266559
0.064,0.206136
0.06425,0.207648
0.0645,0.207553
0.06475,0.179625
0.065,0.221732
0.06525,0.234436
0.0655,0.208521
0.06575,0.229804
0.066,0.25193
0.06625,0.282679
0.0665,0.282365
0.06675,0.202509
0.067,0.214108
0.06725,0.238661
0.0675,0.218307
0.06775,0.27488
0.068,0.350337
0.06825,0.356839
0.0685,0.271466
0.06875,0.303247
0.069,0.220824
0.06925,0.257132
0.0695,0.334094
0.06975,0.288778
0.07,0.293552
0.07025,0.320836
0.0705,0.298159
0.07075,0.284982
0.071,0.298979
0.07125,0.285443
0.0715,0.304054
0.07175,0.303027
0.072,0.296149
0.07225,0.294927
0.0725,0.319657
0.07275,0.296849
0.073,0.275279
0.07325,0.316263
0.0735,0.34579
0.07375,0.314908
0.074,0.326128
0.07425,0.358231
0.0745,0.358366
0.07475,0.401117
0.075,0.381979
0.07525,0.401556
0.0755,0.40027
0.07575,0.417271
0.076,0.431743
0.07625,0.470219
0.0765,0.404057
0.07675,0.437661
0.077,0.401852
0.07725,0.465357
0.0775,0.384862
0.07775,0.421484
0.078,0.449247
0.07825,0.463316
0.0785,0.415524
0.07875,0.445418
0.079,0.404425
0.07925,0.44423
0.0795,0.400972
0.07975,0.375672
0.08,0.367513
0.08025,0.406651
0.0805,0.340724
0.08075,0.402131
0.081,0.378152
0.08125,0.342691
0.0815,0.340362
0.08175,0.343752
0.082,0.341517
0.08225,0.370448
0.0825,0.371124
0.08275,0.351123
0.083,0.369956
0.08325,0.391597
0.0835,0.398741
0.08375,0.365844
0.084,0.424295
0.08425,0.432632
0.0845,0.389471
0.08475,0.432844
0.085,0.465813
0.08525,0.415311
0.0855,0.406823
0.08575,0.46532
0.086,0.448682
0.08625,0.383608
0.0865,0.446015
0.08675,0.377856
0.087,0.384153
0.08725,0.37693
0.0875,0.400121
0.08775,0.422241
0.088,0.387786
0.08825,0.331476
0.0885,0.370046
0.08875,0.389759
0.089,0.402504
0.08925,0.422907
0.0895,0.360806
0.08975,0.410565
0.09,0.410092
0.09025,0.385989
0.0905,0.418188
0.09075,0.426921
0.091,0.427306
0.09125,0.451271
0.0915,0.476048
0.09175,0.496352
0.092,0.489034
0.09225,0.494029
0.0925,0.559467
0.09275,0.554359
0.093,0.583986
0.09325,0.5695
0.0935,0.580943
0.09375,0.564427
0.094,0.543533
0.09425,0.585261
0.0945,0.517679
0.09475,0.574522
0.095,0.578155
0.09525,0.605829
0.0955,0.512897
0.09575,0.561548
0.096,0.540151
0.09625,0.589939
0.0965,0.508018
0.09675,0.509536
0.097,0.512346
0.09725,0.541508
0.0975,0.517762
0.09775,0.535809
0.098,0.509812
0.09825,0.542337
0.0985,0.458663
0.09875,0.48912
0.099,0.507848
0.09925,0.526868
0.0995,0.531613
0.09975,0.519898
0.1,0.527201
0.10025,0.536722
0.1005,0.543182
0.10075,0.554827
0.101,0.528692
0.10125,0.557051
0.1015,0.550632
0.10175,0.584436
0.102,0.525226
0.10225,0.574011
0.1025,0.537161
0.10275,0.467259
0.103,0.540616
0.10325,0.49721
0.1035,0.491366
0.10375,0.546013
0.104,0.55049
0.10425,0.525648
0.1045,0.536026
0.10475,0.535435
0.105,0.454898
0.10525,0.539221
0.1055,0.470187
0.10575,0.484895
0.106,0.511485
0.10625,0.48571
0.1065,0.490957
0.10675,0.506618
0.107,0.498419
0.10725,0.480527
0.1075,0.519564
0.10775,0.50521
0.108,0.548393
0.10825,0.566286
0.1085,0.5857
0.10875,0.582583
0.109,0.614277
0.10925,0.600812
0.1095,0.6516
0.10975,0.646747
0.11,0.643769
0.11025,0.628935
0.1105,0.671179
0.11075,0.689183
0.111,0.702278
0.11125,0.683698
0.1115,0.666444
0.11175,0.696334
0.112,0.704864
0.11225,0.629904
0.1125,0.607143
0.11275,0.68107
0.113,0.63462
0.11325,0.622718
0.1135,0.63591
0.11375,0.667071
0.114,0.683186
0.11425,0.569619
0.1145,0.665073
0.11475,0.657195
0.115,0.615951
0.11525,0.620333
0.1155,0.570105
0.11575,0.584208
0.116,0.622636
0.11625,0.668647
0.1165,0.638645
0.11675,0.662014
0.117,0.675245
0.11725,0.689544
0.1175,0.648157
0.11775,0.683508
0.118,0.676738
0.11825,0.67285
0.1185,0.687542
0.11875,0.704825
0.119,0.639292
0.11925,0.689027
0.1195,0.644471
0.11975,0.622168
0.12,0.629902
0.12025,0.654499
0.1205,0.649132
0.12075,0.599089
0.121,0.585221
0.12125,0.60356
0.1215,0.602239
0.12175,0.5794
0.122,0.533442
0.12225,0.59904
0.1225,0.565444
0.12275,0.539953
0.123,0.578803
0.12325,0.584146
0.1235,0.528897
0.12375,0.564618
0.124,0.577733
0.12425,0.585365
0.1245,0.580442
0.12475,0.660542
0.125,0.649957
0.12525,0.632356
0.1255,0.688598
0.12575,0.676545
0.126,0.666237
0.12625,0.70923
0.1265,0.687837
0.12675,0.727677
0.127,0.732119
0.12725,0.735478
0.1275,0.729965
0.12775,0.723293
0.128,0.703761
0.12825,0.695177
0.1285,0.745819
0.12875,0.717434
0.129,0.724852
0.12925,0.73671
0.1295,0.676492
0.12975,0.730009
0.13,0.688708
0.13025,0.678985
0.1305,0.703053
0.13075,0.661748
0.131,0.668158
0.13125,0.661735
0.1315,0.654064
0.13175,0.723061
0.132,0.74588
0.13225,0.701094
0.1325,0.719032
0.13275,0.713727
0.133,0.707714
0.13325,0.692246
0.1335,0.739022
0.13375,0.746129
0.134,0.747266
0.13425,0.732427
0.1345,0.781891
0.13475,0.725419
0.135,0.714301
0.13525,0.791601
0.1355,0.721372
0.13575,0.752725
0.136,0.749805
0.13625,0.741951
0.1365,0.714767
0.13675,0.70625
0.137,0.685947
0.13725,0.695669
0.1375,0.69441
0.13775,0.669949
0.138,0.675143
0.13825,0.632221
0.1385,0.633032
0.13875,0.64088
0.139,0.649823
0.13925,0.667763
0.1395,0.615854
0.13975,0.576037
0.14,0.544901
0.14025,0.560051
0.1405,0.553139
0.14075,0.624088
0.141,0.590441
0.14125,0.601758
0.1415,0.644728
0.14175,0.691867
0.142,0.692072
0.14225,0.643867
0.1425,0.667106
0.14275,0.650432
0.143,0.661976
0.14325,0.702912
0.1435,0.733502
0.14375,0.722778
0.144,0.742107
0.14425,0.692427
0.1445,0.725792
0.14475,0.72658
0.145,0.694284
0.14525,0.712581
0.1455,0.703698
0.14575,0.708875
0.146,0.699187
0.14625,0.700748
0.1465,0.691621
0.14675,0.684584
0.147,0.712803
0.14725,0.712826
0.1475,0.68134
0.14775,0.705699
0.148,0.698102
0.14825,0.746784
0.1485,0.717544
0.14875,0.711713
0.149,0.740891
0.14925,0.705852
0.1495,0.735951
0.14975,0.760476
0.15,0.724559
0.15025,0.7853
0.1505,0.731609
0.15075,0.715369
0.151,0.753316
0.15125,0.739491
0.1515,0.754335
0.15175,0.757026
0.152,0.707725
0.15225,0.734722
0.1525,0.780956
0.15275,0.704559
0.153,0.757825
0.15325,0.722959
0.1535,0.698717
0.15375,0.70475
0.154,0.695123
0.15425,0.682312
0.1545,0.659107
0.15475,0.645402
0.155,0.62389
0.15525,0.601108
0.1555,0.623865
0.15575,0.618993
0.156,0.591013
0.15625,0.639962
0.1565,0.605095
0.15675,0.604591
0.157,0.556877
0.15725,0.59089
0.1575,0.638285
0.15775,0.601846
0.158,0.559995
0.15825,0.626255
0.1585,0.620859
0.15875,0.616818
0.159,0.670203
0.15925,0.629219
0.1595,0.607504
0.15975,0.584454
0.16,0.659109
0.16025,0.705444
0.1605,0.641498
0.16075,0.654073
0.161,0.618426
0.16125,0.675957
0.1615,0.662484
0.16175,0.625999
0.162,0.627723
0.16225,0.639139
0.1625,0.629131
0.16275,0.626987
0.163,0.599545
0.16325,0.594569
0.1635,0.588017
0.16375,0.62438
0.164,0.618114
0.16425,0.588524
0.1645,0.617765
0.16475,0.636574
0.165,0.581856
0.16525,0.617523
0.1655,0.605099
0.16575,0.629568
0.166,0.63921
0.16625,0.613819
0.1665,0.622581
0.16675,0.622859
0.167,0.706874
0.16725,0.67034
0.1675,0.654322
0.16775,0.725255
0.168,0.704562
0.16825,0.660832
0.1685,0.699994
0.16875,0.648879
0.169,0.748219
0.16925,0.670273
0.1695,0.645512
0.16975,0.6215
0.17,0.631759
0.17025,0.648205
0.1705,0.651447
0.17075,0.629651
0.171,0.613853
0.17125,0.612072
0.1715,0.559017
0.17175,0.542127
0.172,0.545977
0.17225,0.56842
0.1725,0.509875
0.17275,0.553075
0.173,0.542825
0.17325,0.489831
0.1735,0.52077
0.17375,0.531402
0.174,0.545842
0.17425,0.524716
0.1745,0.526551
0.17475,0.525668
0.175,0.512296
0.17525,0.520964
0.1755,0.486297
0.17575,0.544522
0.176,0.511724
0.17625,0.535516
0.1765,0.469079
0.17675,0.503797
0.177,0.563759
0.17725,0.550353
0.1775,0.465143
0.17775,0.552493
0.178,0.560276
0.17825,0.524489
0.1785,0.480798
0.17875,0.493441
0.179,0.4434
0.17925,0.446299
0.1795,0.480172
0.17975,0.460341
0.18,0.467887
0.18025,0.456283
0.1805,0.471797
0.18075,0.460675
0.181,0.429488
0.18125,0.425638
0.1815,0.461288
0.18175,0.450878
0.182,0.428755
0.18225,0.491764
0.1825,0.456819
0.18275,0.483135
0.183,0.487945
0.18325,0.508915
0.1835,0.51304
0.18375,0.522781
0.184,0.484732
0.18425,0.538378
0.1845,0.51916
0.18475,0.601028
0.185,0.505987
0.18525,0.534859
0.1855,0.591117
0.18575,0.562413
0.186,0.511338
0.18625,0.492144
0.1865,0.500352
0.18675,0.461824
0.187,0.456895
0.18725,0.444797
0.1875,0.472909
0.18775,0.475327
0.188,0.409801
0.18825,0.421006
0.1885,0.412953
0.18875,0.445097
0.189,0.464548
0.18925,0.365295
0.1895,0.370909
0.18975,0.369756
0.19,0.366656
0.19025,0.365808
0.1905,0.384674
0.19075,0.369982
0.191,0.357619
0.19125,0.381639
0.1915,0.360531
0.19175,0.37038
0.192,0.375536
0.19225,0.368751
0.1925,0.355605
0.19275,0.379098
0.193,0.368528
0.19325,0.371244
0.1935,0.293324
0.19375,0.395512
0.194,0.30197
0.19425,0.322973
0.1945,0.333863
0.19475,0.336504
0.195,0.364813
0.19525,0.332965
0.1955,0.265255
0.19575,0.319035
0.196,0.31094
0.19625,0.290813
0.1965,0.243687
0.19675,0.21347
0.197,0.267378
0.19725,0.244736
0.1975,0.231037
0.19775,0.237362
0.198,0.211197
0.19825,0.242377
0.1985,0.294051
0.19875,0.207354
0.199,0.256303
0.19925,0.238818
0.1995,0.282621
0.19975,0.277395
0.2,0.281172
0.20025,0.298259
0.2005,0.293428
0.20075,0.311177
0.201,0.30804
0.20125,0.341492
0.2015,0.329386
0.20175,0.354138
0.202,0.353937
0.20225,0.276516
0.2025,0.372715
0.20275,0.255325
0.203,0.267384
0.20325,0.288237
0.2035,0.299747
0.20375,0.253866
0.204,0.258608
0.20425,0.310871
0.2045,0.295069
0.20475,0.297343
0.205,0.308146
0.20525,0.22393
0.2055,0.208494
0.20575,0.227234
0.206,0.210673
0.20625,0.231075
0.2065,0.25582
0.20675,0.224974
0.207,0.220657
0.20725,0.172645
0.2075,0.202584
0.20775,0.157303
0.208,0.168723
0.20825,0.195029
0.2085,0.194018
0.20875,0.185716
0.209,0.188209
0.20925,0.170779
0.2095,0.175031
0.20975,0.168506
0.21,0.154635
0.21025,0.125502
0.2105,0.163413
0.21075,0.146065
0.211,0.148774
0.21125,0.121396
0.2115,0.151784
0.21175,0.159689
0.212,0.140451
0.21225,0.118821
0.2125,0.0678985
0.21275,0.0316986
0.213,0.000928886
0.21325,0.0737645
0.2135,0.0400753
0.21375,0.0915791
0.214,0.0168185
0.21425,-0.0290424
0.2145,0.066956
0.21475,-0.00435438
0.215,0.0186358
0.21525,-0.00146812
0.2155,0.0351169
0.21575,-0.00661915
0.216,0.0321008
0.21625,0.0488977
0.2165,0.0358309
0.21675,0.0317594
0.217,0.0670361
0.21725,0.0877247
0.2175,0.0888903
0.21775,0.0967088
0.218,0.0576919
0.21825,1.00E-01
0.2185,0.0823815
0.21875,0.0902325
0.219,0.0768555
0.21925,0.124503
0.2195,0.122803
0.21975,0.0551
0.22,0.1023
0.22025,0.102178
0.2205,0.0991561
0.22075,0.0899632
0.221,0.063255
0.22125,0.025109
0.2215,0.0191286
0.22175,0.0106181
0.222,0.0343139
0.22225,0.0756472
0.2225,-0.0550063
0.22275,0.0791967
0.223,0.033486
0.22325,0.0365659
0.2235,0.0484755
0.22375,0.0128424
0.224,-0.0202077
0.22425,-0.0205173
0.2245,-0.0102259
0.22475,-0.0244057
0.225,0.01482
0.22525,-0.00116826
0.2255,0.000625056
0.22575,-0.00268804
0.226,0.00961152
0.22625,0.0100031
0.2265,0.0156798
0.22675,-0.00534373
0.227,0.0215185
0.22725,-0.0415581
0.2275,1.04E-05
0.22775,-0.0184663
0.228,-0.0714842
0.22825,-0.0645503
0.2285,-0.0522235
0.22875,-0.0748218
0.229,-0.0745529
0.22925,-0.119815
0.2295,-0.138103
0.22975,-0.140028
0.23,-0.135683
0.23025,-0.161244
0.2305,-0.153337
0.23075,-0.134305
0.231,-0.161465
0.23125,-0.159313
0.2315,-0.180444
0.23175,-0.139226
0.232,-0.18034
0.23225,-0.161435
0.2325,-0.167884
0.23275,-0.1609
0.233,-0.183692
0.23325,-0.139065
0.2335,-0.130656
0.23375,-0.188418
0.234,-0.15364
0.23425,-0.170658
0.2345,-0.0851872
0.23475,-0.118225
0.235,-0.103841
0.23525,-0.154235
0.2355,-0.151718
0.23575,-0.13025
0.236,-0.127291
0.23625,-0.0887393
0.2365,-0.132038
0.23675,-0.121813
0.237,-0.1226
0.23725,-0.145532
0.2375,-0.145837
0.23775,-0.132753
0.238,-0.173975
0.23825,-0.143828
0.2385,-0.145585
0.23875,-0.155506
0.239,-0.182122
0.23925,-0.233912
0.2395,-0.0993522
0.23975,-0.125238
0.24,-0.150654
0.24025,-0.202501
0.2405,-0.171702
0.24075,-0.178679
0.241,-0.127224
0.24125,-0.164444
0.2415,-0.178684
0.24175,-0.148467
0.242,-0.150633
0.24225,-0.0899493
0.2425,-0.0952748
0.24275,-0.14158
0.243,-0.139481
0.24325,-0.124293
0.2435,-0.166499
0.24375,-0.198523
0.244,-0.139192
0.24425,-0.171229
0.2445,-0.170639
0.24475,-0.187324
0.245,-0.184528
0.24525,-0.183018
0.2455,-0.218896
0.24575,-0.224122
0.246,-0.24422
0.24625,-0.247013
0.2465,-0.282429
0.24675,-0.245669
0.247,-0.314791
0.24725,-0.25722
0.2475,-0.328072
0.24775,-0.305568
0.248,-0.295975
0.24825,-0.276996
0.2485,-0.286868
0.24875,-0.299496
0.249,-0.29564
0.24925,-0.306063
0.2495,-0.310011
0.24975,-0.325193
0.25,-0.268217
0.25025,-0.308859
0.2505,-0.31781
0.25075,-0.266972
0.251,-0.300582
0.25125,-0.244653
0.2515,-0.289078
0.25175,-0.281556
0.252,-0.316055
0.25225,-0.236134
0.2525,-0.286625
0.25275,-0.269816
0.253,-0.288895
0.25325,-0.273984
0.2535,-0.242368
0.25375,-0.272941
0.254,-0.278119
0.25425,-0.28267
0.2545,-0.281283
0.25475,-0.287087
0.255,-0.302559
0.25525,-0.295318
0.2555,-0.291229
0.25575,-0.277131
0.256,-0.332966
0.25625,-0.292435
0.2565,-0.291139
0.25675,-0.322187
0.257,-0.312
0.25725,-0.301823
0.2575,-0.258574
0.25775,-0.23594
0.258,-0.266164
0.25825,-0.223786
0.2585,-0.252835
0.25875,-0.212544
0.259,-0.209348
0.25925,-0.191935
0.2595,-0.23051
0.25975,-0.209564
0.26,-0.15052
0.26025,-0.24339
0.2605,-0.222604
0.26075,-0.228981
0.261,-0.189112
0.26125,-0.203264
0.2615,-0.237707
0.26175,-0.213058
0.262,-0.260173
0.26225,-0.259066
0.2625,-0.280238
0.26275,-0.275886
0.263,-0.300153
0.26325,-0.322961
0.2635,-0.327145
0.26375,-0.336621
0.264,-0.353897
0.26425,-0.335334
0.2645,-0.325169
0.26475,-0.374286
0.265,-0.333612
0.26525,-0.342235
0.2655,-0.37117
0.26575,-0.354049
0.266,-0.353425
0.26625,-0.345151
0.2665,-0.357465
0.26675,-0.313018
0.267,-0.308564
0.26725,-0.327649
0.2675,-0.319525
0.26775,-0.263149
0.268,-0.338774
0.26825,-0.285744
0.2685,-0.343262
0.26875,-0.318816
0.269,-0.257047
0.26925,-0.286971
0.2695,-0.324258
0.26975,-0.303009
0.27,-0.330309
0.27025,-0.358435
0.2705,-0.348499
0.27075,-0.350541
0.271,-0.338143
0.27125,-0.320976
0.2715,-0.315076
0.27175,-0.316147
0.272,-0.36854
0.27225,-0.34651
0.2725,-0.377044
0.27275,-0.370495
0.273,-0.313109
0.27325,-0.358911
0.2735,-0.342002
0.27375,-0.335539
0.274,-0.289075
0.27425,-0.323633
0.2745,-0.280892
0.27475,-0.261985
0.275,-0.26673
0.27525,-0.27766
0.2755,-0.262027
0.27575,-0.210031
0.276,-0.198973
0.27625,-0.182481
0.2765,-0.185137
0.27675,-0.182659
0.277,-0.175588
0.27725,-0.174928
0.2775,-0.227082
0.27775,-0.233614
0.278,-0.203736
0.27825,-0.18003
0.2785,-0.289586
0.27875,-0.229368
0.279,-0.225123
0.27925,-0.227332
0.2795,-0.302649
0.27975,-0.268391
0.28,-0.263635
0.28025,-0.264008
0.2805,-0.336467
0.28075,-0.278709
0.281,-0.32025
0.28125,-0.340156
0.2815,-0.330296
0.28175,-0.289969
0.282,-0.345637
0.28225,-0.299119
0.2825,-0.333885
0.28275,-0.311938
0.283,-0.311408
0.28325,-0.321687
0.2835,-0.285754
0.28375,-0.323478
0.284,-0.32083
0.28425,-0.286854
0.2845,-0.276272
0.28475,-0.338953
0.285,-0.248031
0.28525,-0.224092
0.2855,-0.266014
0.28575,-0.353626
0.286,-0.217877
0.28625,-0.330475
0.2865,-0.293624
0.28675,-0.310566
0.287,-0.283107
0.28725,-0.268138
0.2875,-0.327805
0.28775,-0.318855
0.288,-0.299059
0.28825,-0.372283
0.2885,-0.334731
0.28875,-0.289425
0.289,-0.329662
0.28925,-0.357475
0.2895,-0.316181
0.28975,-0.357832
0.29,-0.341288
0.29025,-0.283266
0.2905,-0.268475
0.29075,-0.278958
0.291,-0.276248
0.29125,-0.23994
0.2915,-0.236561
0.29175,-0.2437
0.292,-0.225706
0.29225,-0.196372
0.2925,-0.166552
0.29275,-0.145179
0.293,-0.213941
0.29325,-0.179374
0.2935,-0.142694
0.29375,-0.133409
0.294,-0.0956491
0.29425,-0.193535
0.2945,-0.196102
0.29475,-0.136168
0.295,-0.142658
0.29525,-0.151948
0.2955,-0.173918
0.29575,-0.166443
0.296,-0.146509
0.29625,-0.157959
0.2965,-0.163436
0.29675,-0.172045
0.297,-0.163079
0.29725,-0.199937
0.2975,-0.182367
0.29775,-0.215035
0.298,-0.236933
0.29825,-0.210255
0.2985,-0.221643
0.29875,-0.204731
0.299,-0.208346
0.29925,-0.207041
0.2995,-0.21312
0.29975,-0.195147
0.3,-0.195946
0.30025,-0.18937
0.3005,-0.179062
0.30075,-0.178922
0.301,-0.163514
0.30125,-0.154381
0.3015,-0.152017
0.30175,-0.124189
0.302,-0.176109
0.30225,-0.16042
0.3025,-0.150731
0.30275,-0.187736
0.303,-0.129998
0.30325,-0.17621
0.3035,-0.239583
0.30375,-0.215007
0.304,-0.222433
0.30425,-0.207614
0.3045,-0.240412
0.30475,-0.254864
0.305,-0.184648
0.30525,-0.229915
0.3055,-0.240566
0.30575,-0.212739
0.306,-0.230055
0.30625,-0.278764
0.3065,-0.218673
0.30675,-0.208332
0.307,-0.233257
0.30725,-0.175437
0.3075,-0.184198
0.30775,-0.190618
0.308,-0.179062
0.30825,-0.161396
0.3085,-0.138072
0.30875,-0.12315
0.309,-0.103185
0.30925,-0.101883
0.3095,-0.0621363
0.30975,-0.108473
0.31,-0.0587713
0.31025,-0.078839
0.3105,-0.0330281
0.31075,-0.0840017
0.311,-0.0930037
0.31125,-0.0211892
0.3115,-0.102488
0.31175,-0.0988817
0.312,-0.0182609
0.31225,-0.0426078
0.3125,-0.0605529
0.31275,-0.0629145
0.313,-0.0407876
0.31325,-0.0316205
0.3135,-0.102845
0.31375,-0.0785306
0.314,-0.0664538
0.31425,-0.0504264
0.3145,-0.0408623
0.31475,-0.105557
0.315,-0.0333723
0.31525,-0.0377373
0.3155,-0.0698222
0.31575,-0.0521456
0.316,-0.0468608
0.31625,-0.0687887
0.3165,-0.0416715
0.31675,-0.0334372
0.317,-0.0611348
0.31725,-0.0515955
0.3175,-0.0380789
0.31775,-0.0583924
0.318,-0.0435131
0.31825,-0.0101496
0.3185,-0.0295976
0.31875,-0.0324939
0.319,-0.0633677
0.31925,-0.0519682
0.3195,-0.0809833
0.31975,-0.0704019
0.32,-0.0777007
0.32025,-0.0803949
0.3205,-0.0645177
0.32075,-0.0675121
0.321,-0.0767042
0.32125,-0.0974012
0.3215,-0.0587491
0.32175,-0.11121
0.322,-0.128402
0.32225,-0.041654
0.3225,-0.125857
0.32275,-0.147437
0.323,-0.0962736
0.32325,-1.20E-01
0.3235,-0.107686
0.32375,-0.146373
0.324,-0.047167
0.32425,-0.0433729
0.3245,-0.0241661
0.32475,-0.0759176
0.325,-0.0544759
0.32525,-0.0607602
0.3255,-0.0471167
0.32575,-0.00907712
0.326,-0.0302483
0.32625,0.00140633
0.3265,0.00212168
0.32675,-0.00234353
0.327,0.0259706
0.32725,0.018418
0.3275,0.0724203
0.32775,0.0527876
0.328,0.0647307
0.32825,0.0553362
0.3285,0.0642295
0.32875,0.0332676
0.329,0.0422944
0.32925,0.0230165
0.3295,0.0162487
0.32975,0.0409986
0.33,0.08832
0.33025,0.0729262
0.3305,0.0355197
0.33075,-0.0241393
0.331,-0.0272322
0.33125,0.0380857
0.3315,0.0109395
0.33175,0.101756
0.332,0.0288828
0.33225,0.0179663
0.3325,0.0170116
0.33275,0.108967
0.333,0.0480383
0.33325,0.0413442
0.3335,0.111906
0.33375,0.121238
0.334,0.11651
0.33425,0.0838353
0.3345,0.0962608
0.33475,0.111516
0.335,0.103828
0.33525,0.0779919
0.3355,0.143753
0.33575,0.131351
0.336,0.0995403
0.33625,0.108704
0.3365,0.0901998
0.33675,0.0787847
0.337,0.0657513
0.33725,0.0667104
0.3375,0.0583823
0.33775,0.0472748
0.338,0.0215421
0.33825,0.0294652
0.3385,-0.0129924
0.33875,-0.0106478
0.339,0.0200099
0.33925,0.0275368
0.3395,0.030093
0.33975,0.0166308
0.34,0.0544055
0.34025,0.0250272
0.3405,-0.0386728
0.34075,0.00201812
0.341,-0.0277618
0.34125,-0.00233854
0.3415,0.0834986
0.34175,0.0173872
0.342,0.0988937
0.34225,0.0190912
0.3425,0.113844
0.34275,0.0884728
0.343,0.0504098
0.34325,0.0667173
0.3435,0.128197
0.34375,0.0648454
0.344,0.152757
0.34425,0.123442
0.3445,0.120597
0.34475,0.11089
0.345,0.102058
0.34525,0.124735
0.3455,0.125795
0.34575,0.114664
0.346,0.122451
0.34625,0.114013
0.3465,0.137284
0.34675,0.136703
0.347,0.100758
0.34725,0.124733
0.3475,0.112284
0.34775,0.148993
0.348,0.156557
0.34825,0.158205
0.3485,0.110877
0.34875,0.153282
0.349,0.140202
0.34925,0.172186
0.3495,0.136011
0.34975,0.173443
0.35,0.12831
0.35025,0.187349
0.3505,0.162401
0.35075,0.224707
0.351,0.206668
0.35125,0.155507
0.3515,0.212296
0.35175,0.158327
0.352,0.16116
0.35225,0.200882
0.3525,0.176225
0.35275,0.156836
0.353,0.209717
0.35325,0.162923
0.3535,0.172153
0.35375,0.147149
0.354,0.145922
0.35425,0.145497
0.3545,0.130572
0.35475,0.115008
0.355,0.10506
0.35525,0.133305
0.3555,0.105588
0.35575,0.105309
0.356,0.0725276
0.35625,0.0897493
0.3565,0.0922548
0.35675,0.0404406
0.357,0.0698733
0.35725,0.102731
0.3575,0.0648289
0.35775,0.132842
0.358,0.0705952
0.35825,0.121015
0.3585,0.101997
0.35875,0.0609139
0.359,0.168613
0.35925,0.0777043
0.3595,0.163574
0.35975,0.125912
0.36,0.10841
0.36025,0.178105
0.3605,0.129658
0.36075,0.17286
0.361,0.130356
0.36125,0.168038
0.3615,0.148805
0.36175,0.161159
0.362,0.140416
0.36225,0.162823
0.3625,0.145298
0.36275,0.143175
0.363,0.153418
0.36325,0.119419
0.3635,0.145409
0.36375,0.132522
0.364,0.148774
0.36425,0.143355
0.3645,0.138311
0.36475,0.112071
0.365,0.13617
0.36525,0.196714
0.3655,0.146832
0.36575,0.155447
0.366,0.192158
0.36625,0.167311
0.3665,0.194399
0.36675,0.190877
0.367,0.211165
0.36725,0.273075
0.3675,0.242707
0.36775,0.211995
0.368,0.244716
0.36825,0.197908
0.3685,0.173363
0.36875,0.282827
0.369,0.243101
0.36925,0.269682
0.3695,0.299477
0.36975,0.240401
0.37,0.218382
0.37025,0.198151
0.3705,0.211154
0.37075,0.216113
0.371,0.178839
0.37125,0.163414
0.3715,0.166533
0.37175,0.168059
0.372,0.131917
0.37225,0.159876
0.3725,0.143415
0.37275,0.154515
0.373,0.115781
0.37325,0.12765
0.3735,0.134719
0.37375,0.11829
0.374,0.145053
0.37425,0.122863
0.3745,0.14221
0.37475,0.106619
0.375,0.103981
0.37525,0.145182
0.3755,0.126306
0.37575,0.090853
0.376,0.167393
0.37625,0.103818
0.3765,0.138299
0.37675,0.178287
0.377,0.16976
0.37725,0.141361
0.3775,0.113715
0.37775,0.126317
0.378,0.128363
0.37825,0.150221
0.3785,0.0890031
0.37875,0.128399
0.379,0.151564
0.37925,0.141671
0.3795,0.0802515
0.37975,0.0938877
0.38,0.0881689
0.38025,0.103935
0.3805,0.0799079
0.38075,0.118221
0.381,0.0799624
0.38125,0.118728
0.3815,0.141261
0.38175,0.0839798
0.382,0.103433
0.38225,0.1415
0.3825,0.138796
0.38275,0.15113
0.383,0.144833
0.38325,0.189418
0.3835,0.195637
0.38375,0.168101
0.384,0.193992
0.38425,0.185251
0.3845,0.237453
0.38475,0.196548
0.385,0.246838
0.38525,0.173095
0.3855,0.256888
0.38575,0.271593
0.386,0.236902
0.38625,0.247349
0.3865,0.23886
0.38675,0.20865
0.387,0.194691
0.38725,0.207499
0.3875,0.220293
0.38775,0.217748
0.388,0.192897
0.38825,0.159168
0.3885,0.14753
0.38875,0.126109
0.389,0.121734
0.38925,0.116315
0.3895,0.0555364
0.38975,0.0888264
0.39,0.111958
0.39025,0.111272
0.3905,0.081364
0.39075,0.0879869
0.391,0.096368
0.39125,0.102695
0.3915,0.119618
0.39175,0.112954
0.392,0.109792
0.39225,0.0904717
0.3925,0.137105
0.39275,0.121604
0.393,0.115859
0.39325,0.130988
0.3935,0.113897
0.39375,0.092348
0.394,0.0988897
0.39425,0.0938667
0.3945,0.042272
0.39475,0.145606
0.395,0.0667198
0.39525,0.0397396
0.3955,0.0607805
0.39575,0.0920541
0.396,0.0759704
0.39625,0.0268291
0.3965,0.00483703
0.39675,0.028934
0.397,0.00631401
0.39725,0.0603437
0.3975,0.0272326
0.39775,0.0641677
0.398,0.0338693
0.39825,0.0337613
0.3985,0.062323
0.39875,2.25E-02
0.399,0.015406
0.39925,0.0611249
0.3995,0.0551613
0.39975,0.0858292
0.4,0.0930574
0.40025,0.100529
0.4005,0.103652
0.40075,0.126179
0.401,0.146583
0.40125,0.140466
0.4015,0.120176
0.40175,0.166678
0.402,0.107689
0.40225,0.106146
0.4025,0.190875
0.40275,0.155815
0.403,0.180423
0.40325,0.139105
0.4035,0.080205
0.40375,0.180116
0.404,0.1167
0.40425,0.116959
0.4045,0.132555
0.40475,0.121597
0.405,0.13574
0.40525,0.0688549
0.4055,0.114677
0.40575,0.0930494
0.406,0.0991906
0.40625,0.109924
0.4065,0.0813792
0.40675,0.127421
0.407,0.0585958
0.40725,0.10113
0.4075,0.0779659
0.40775,0.085598
0.408,0.0698233
0.40825,0.0854554
0.4085,0.081247
0.40875,0.0686802
0.409,0.0732979
0.40925,0.0697988
0.4095,0.0612261
0.40975,0.045651
0.41,0.0840544
0.41025,0.0639352
0.4105,0.0490035
0.41075,0.0430377
0.411,0.098901
0.41125,0.0651012
0.4115,0.0425191
0.41175,0.0583698
0.412,-0.0146666
0.41225,0.0421786
0.4125,0.0142118
0.41275,-0.054478
0.413,-0.0512096
0.41325,-0.0472822
0.4135,-0.0732611
0.41375,-0.0807431
0.414,-0.104269
0.41425,-0.122103
0.4145,-0.00227387
0.41475,-0.0497074
0.415,-0.0447373
0.41525,-0.0472894
0.4155,-0.00226683
0.41575,-0.083583
0.416,-0.0100518
0.41625,-0.0268984
0.4165,0.00330578
0.41675,0.00673896
0.417,-0.00332083
0.41725,0.0200253
0.4175,0.0475858
0.41775,0.031597
0.418,0.0206486
0.41825,0.0489477
0.4185,0.0725037
0.41875,0.0655983
0.419,0.0370043
0.41925,0.015953
0.4195,0.0833995
0.41975,0.0267344
0.42,0.102267
0.42025,0.0702526
0.4205,0.0491751
0.42075,0.040105
0.421,0.0753617
0.42125,0.0545355
0.4215,0.0564083
0.42175,0.0516862
0.422,0.0322435
0.42225,-0.00215348
0.4225,-0.0182643
0.42275,-0.0148964
0.423,0.0346988
0.42325,-0.0133003
0.4235,0.0218145
0.42375,0.0271715
0.424,0.0149734
0.42425,0.0012963
0.4245,-0.00414865
0.42475,0.0185558
0.425,0.0178053
0.42525,0.0254033
0.4255,0.034823
0.42575,0.0428032
0.426,0.00547761
0.42625,0.0488139
0.4265,0.0595555
0.42675,-0.00519511
0.427,0.0185427
0.42725,0.031238
0.4275,0.0289391
0.42775,-0.0276802
0.428,0.0146747
0.42825,-0.0269863
0.4285,-0.00213028
0.42875,-0.0291144
0.429,-0.021596
0.42925,-0.0581406
0.4295,-0.074372
0.42975,-0.125787
0.43,-0.0619303
0.43025,-0.0613565
0.4305,-0.0761843
0.43075,-0.104986
0.431,-0.0976727
0.43125,-0.163142
0.4315,-0.163917
0.43175,-0.135014
0.432,-0.149706
0.43225,-0.136671
0.4325,-0.0784564
0.43275,-0.142377
0.433,-0.0875142
0.43325,-0.043726
0.4335,-0.0743155
0.43375,-0.0351537
0.434,-0.0805391
0.43425,-0.0366332
0.4345,-0.0424287
0.43475,-0.0389294
0.435,-0.0164594
0.43525,-0.0166754
0.4355,-0.0452365
0.43575,0.00462742
0.436,-0.0108747
0.43625,-0.0378251
0.4365,-0.0300827
0.43675,-0.0190613
0.437,0.00171868
0.43725,-0.024956
0.4375,-3.13E-02
0.43775,-0.0478596
0.438,-0.0546397
0.43825,-0.020345
0.4385,-0.0769217
0.43875,-0.00371317
0.439,-0.0474581
0.43925,-0.108015
0.4395,-0.0828366
0.43975,-0.0263028
0.44,-0.00664213
0.44025,-0.0191899
0.4405,-0.0726293
0.44075,0.00321087
0.441,-0.0676366
0.44125,-0.0711528
0.4415,-0.028889
0.44175,-0.0428415
0.442,-0.0384829
0.44225,-0.00996781
0.4425,0.0195715
0.44275,0.0231448
0.443,0.0360305
0.44325,0.0315362
0.4435,0.00188926
0.44375,0.00546592
0.444,0.010081
0.44425,-0.00754213
0.4445,-0.0215863
0.44475,-0.0288763
0.445,-0.0465785
0.44525,-0.0496715
0.4455,-0.0639901
0.44575,-0.0669896
0.446,-0.0780428
0.44625,-0.0911199
0.4465,-0.104656
0.44675,-0.131447
0.447,-0.0999879
0.44725,-0.120934
0.4475,-0.135075
0.44775,-0.177894
0.448,-0.178755
0.44825,-0.183514
0.4485,-0.138321
0.44875,-0.172537
0.449,-0.137963
0.44925,-0.0942708
0.4495,-0.131655
0.44975,-0.153648
0.45,-0.131609
0.45025,-0.101601
0.4505,-0.131615
0.45075,-0.0908915
0.451,-0.0707857
0.45125,-0.0902597
0.4515,-0.0596202
0.45175,-0.118038
0.452,-0.0530484
0.45225,-0.0795443
0.4525,-0.071573
0.45275,-0.0811332
0.453,-0.027879
0.45325,-0.106976
0.4535,-0.0629615
0.45375,-0.0952606
0.454,-0.0788594
0.45425,-0.0833687
0.4545,-0.0780397
0.45475,-0.104431
0.455,-0.0672927
0.45525,-0.102796
0.4555,-0.139349
0.45575,-0.122184
0.456,-0.110239
0.45625,-0.111975
0.4565,-0.0910029
0.45675,-0.103607
0.457,-0.0660238
0.45725,-0.074158
0.4575,-0.0210486
0.45775,-0.0865362
0.458,-0.0748127
0.45825,-0.0562831
0.4585,-0.00808433
0.45875,0.0322158
0.459,-0.0436745
0.45925,0.0164706
0.4595,0.029897
0.45975,-0.00180722
0.46,-0.014545
0.46025,0.0139448
0.4605,-0.0182928
0.46075,-0.00762974
0.461,-0.00557713
0.46125,-0.033354
0.4615,-0.0214539
0.46175,-0.0295537
0.462,-0.0179877
0.46225,-0.0305484
0.4625,-0.0554647
0.46275,-0.0893827
0.463,-0.0894222
0.46325,-0.0798065
0.4635,-0.12492
0.46375,-0.118536
0.464,-0.0952191
0.46425,-0.128254
0.4645,-0.111829
0.46475,-0.151369
0.465,-0.184485
0.46525,-0.163962
0.4655,-0.139126
0.46575,-0.162211
0.466,-0.0990478
0.46625,-0.137303
0.4665,-0.125141
0.46675,-0.147417
0.467,-0.0888298
0.46725,-0.0822988
0.4675,-0.133579
0.46775,-0.162062
0.468,-0.044043
0.46825,-0.0879976
0.4685,-0.0779661
0.46875,-0.0915255
0.469,-0.0796887
0.46925,-0.118319
0.4695,-0.0700493
0.46975,-0.12238
0.47,-0.0841352
0.47025,-0.0468022
0.4705,-0.114695
0.47075,-0.0956983
0.471,-0.12281
0.47125,-0.129356
0.4715,-0.124426
0.47175,-0.118596
0.472,-0.123422
0.47225,-0.148571
0.4725,-0.0957011
0.47275,-0.145111
0.473,-0.0990993
0.47325,-0.116931
0.4735,-0.111217
0.47375,-0.106576
0.474,-0.0788214
0.47425,-0.0752018
0.4745,-0.0584251
0.47475,-0.0596503
0.475,-0.0417742
0.47525,-0.0376842
0.4755,-0.00764347
0.47575,-0.0289503
0.476,-0.0574469
0.47625,-0.0178769
0.4765,-0.010009
0.47675,0.0111389
0.477,0.00249138
0.47725,-0.0086577
0.4775,0.00517158
0.47775,0.0204287
0.478,0.0777927
0.47825,-0.0207374
0.4785,-0.0394755
0.47875,0.0152917
0.479,0.0104
0.47925,-0.057542
0.4795,-0.0802422
0.47975,-0.0326293
0.48,-0.087477
0.48025,-0.0688445
0.4805,-0.0860816
0.48075,-0.0891413
0.481,-0.131488
0.48125,-0.0575846
0.4815,-0.107356
0.48175,-0.0717674
0.482,-0.118461
0.48225,-0.105254
0.4825,-0.0900351
0.48275,-0.114601
0.483,-0.0988953
0.48325,-0.091286
0.4835,-0.0828253
0.48375,-0.0711765
0.484,-0.0728344
0.48425,-0.0463888
0.4845,-0.0990908
0.48475,-0.0387901
0.485,-0.114881
0.48525,-0.078302
0.4855,-0.0459304
0.48575,-0.0319688
0.486,-0.14591
0.48625,-0.0948979
0.4865,-0.0440015
0.48675,-0.0515128
0.487,-0.0934634
0.48725,-0.10532
0.4875,-0.13913
0.48775,-0.0688574
0.488,-0.107929
0.48825,-0.0759273
0.4885,-0.126319
0.48875,-0.11715
0.489,-0.107597
0.48925,-0.0910305
0.4895,-0.104857
0.48975,-0.0780468
0.49,-0.0833007
0.49025,-0.0865749
0.4905,-0.0764766
0.49075,-0.0626571
0.491,-0.0716759
0.49125,-0.0443356
0.4915,-0.0518302
0.49175,-0.038148
0.492,-0.00861654
0.49225,0.00792514
0.4925,-1.14E-02
0.49275,-0.0116945
0.493,0.00386949
0.49325,0.0679825
0.4935,-0.0111665
0.49375,0.0220491
0.494,0.039135
0.49425,0.0895837
0.4945,0.0955253
0.49475,0.00686196
0.495,0.0347454
0.49525,0.0236093
0.4955,-0.0230494
0.49575,0.0347932
0.496,-0.00295474
0.49625,-0.00629597
0.4965,0.00778975
0.49675,0.00437841
0.497,-0.0553778
0.49725,-0.0396257
0.4975,-0.0696733
0.49775,-0.0444696
0.498,-0.0498799
0.49825,-0.0290612
0.4985,-0.0457862
0.49875,-0.0214124
0.499,-0.0459876
0.49925,-0.0294613
0.4995,-0.0360269
0.49975,-0.0407773
0.5,-0.0294575
0.50025,-0.0278215
0.5005,-0.0120138
0.50075,-0.0281206
0.501,-0.0066685
0.50125,-0.0116019
0.5015,-0.049252
0.50175,0.0257095
0.502,0.0245653
0.50225,-0.0231911
0.5025,-0.0320727
0.50275,-0.0273533
0.503,-0.0250003
0.50325,-0.0648158
0.5035,-0.0265521
0.50375,-0.0208028
0.504,-0.0334465
0.50425,-0.0614864
0.5045,-0.0675811
0.50475,-0.0835451
0.505,-0.111339
0.50525,-0.0824241
0.5055,-0.141374
0.50575,-0.0895667
0.506,-0.0686864
0.50625,-0.0797994
0.5065,-0.0727761
0.50675,-0.0732614
0.507,-0.128847
0.50725,-0.0520345
0.5075,-0.09503
0.50775,-0.0354941
0.508,-0.0282997
0.50825,-0.0291873
0.5085,-0.0171495
0.50875,-8.07E-03
0.509,0.0183128
0.50925,-0.00362918
0.5095,0.00747264
0.50975,0.0232813
0.51,0.030838
0.51025,0.0129102
0.5105,0.052023
0.51075,0.10524
0.511,0.0793102
0.51125,0.0699375
0.5115,0.0560999
0.51175,0.0372024
0.512,0.0534625
0.51225,0.0523244
0.5125,0.0684324
0.51275,0.0462451
0.513,0.00107793
0.51325,0.00297651
0.5135,0.078298
0.51375,0.0102513
0.514,0.0276243
0.51425,0.0833262
0.5145,0.0502033
0.51475,-0.0339785
0.515,0.0536119
0.51525,0.00648138
0.5155,3.29E-02
0.51575,0.0279064
0.516,0.0311284
0.51625,0.0269073
0.5165,0.039412
0.51675,0.036546
0.517,0.028503
0.51725,2.86E-02
0.5175,0.0666565
0.51775,1.60E-02
0.518,0.0196085
0.51825,0.0112571
0.5185,0.0693122
0.51875,0.0414847
0.519,0.0285599
0.51925,0.0703085
0.5195,0.0344926
0.51975,0.0229996
0.52,0.00475278
0.52025,0.00111231
0.5205,-0.0240387
0.52075,0.00456399
0.521,-0.0194109
0.52125,-0.0522731
0.5215,-0.0439654
0.52175,-0.0276332
0.522,-0.105908
0.52225,-0.0635276
0.5225,-0.0354163
0.52275,-0.0844207
0.523,-0.0854286
0.52325,-0.0294078
0.5235,-0.119404
0.52375,-0.0483624
0.524,-0.107618
0.52425,-0.0184903
0.5245,-0.0544801
0.52475,-0.00993486
0.525,-0.00325192
0.52525,-0.0201631
0.5255,0.00151434
0.52575,-0.0071082
0.526,0.0468741
0.52625,0.0182721
0.5265,0.0732561
0.52675,0.019873
0.527,0.032528
0.52725,0.0733935
0.5275,0.0887644
0.52775,0.0607481
0.528,0.0674044
0.52825,0.0536994
0.5285,0.0488523
0.52875,0.0300121
0.529,0.047871
0.52925,0.0729028
0.5295,0.0576861
0.52975,0.0578838
0.53,0.0438655
0.53025,0.02367
0.5305,0.0133719
0.53075,-0.0127341
0.531,-0.0152865
0.53125,0.0191606
0.5315,-0.0285579
0.53175,0.00525532
0.532,0.0292001
0.53225,0.0455441
0.5325,0.0570949
0.53275,0.0756073
0.533,0.0591179
0.53325,0.0953119
0.5335,0.0421533
0.53375,0.0606114
0.534,0.0573828
0.53425,0.100928
0.5345,0.0827197
0.53475,0.0454001
0.535,0.0817386
0.53525,0.0969268
0.5355,0.0456885
0.53575,0.0856434
0.536,0.0950342
0.53625,0.0488524
0.5365,0.0319095
0.53675,0.0574106
0.537,0.0433119
0.53725,0.00772525
0.5375,0.0161193
0.53775,-0.0166408
0.538,0.00123354
0.53825,-0.0148447
0.5385,-0.0589209
0.53875,-0.0420716
0.539,-0.0944366
0.53925,-0.0348224
0.5395,-0.0338628
0.53975,-0.0979764
0.54,-0.105957
0.54025,-0.0932685
0.5405,-0.070461
0.54075,0.00076583
0.541,-0.0364323
0.54125,-0.000529543
0.5415,-0.0479171
0.54175,-0.00760426
0.542,0.0288183
0.54225,0.0351457
0.5425,0.0225168
0.54275,-0.00557304
0.543,-0.028014
0.54325,0.0693904
0.5435,0.0161953
0.54375,0.0753535
0.544,0.0133079
0.54425,0.0777661
0.5445,0.0105267
0.54475,0.0621492
0.545,0.0555949
0.54525,0.0405121
0.5455,0.0485858
0.54575,0.0397315
0.546,0.0391468
0.54625,0.0225895
0.5465,0.018846
0.54675,0.000885701
0.547,0.0194835
0.54725,0.0174372
0.5475,0.0690614
0.54775,0.0529583
0.548,0.0845062
0.54825,0.0795703
0.5485,0.0671738
0.54875,0.0825659
0.549,0.10109
0.54925,0.0843375
0.5495,0.0453303
0.54975,0.0810311
0.55,0.123782
0.55025,0.0823597
0.5505,0.0720042
0.55075,0.0716623
0.551,0.130749
0.55125,0.0981756
0.5515,0.111504
0.55175,0.0594365
0.552,0.0842444
0.55225,0.11749
0.5525,0.118948
0.55275,0.055687
0.553,0.103871
0.55325,0.0392752
0.5535,0.0808933
0.55375,0.0694707
0.554,0.0461718
0.55425,0.0306526
0.5545,0.0298997
0.55475,0.0258015
0.555,0.000869854
0.55525,0.000159308
0.5555,-0.0184923
0.55575,-0.0509381
0.556,-0.0296611
0.55625,-0.0251327
0.5565,-0.0660491
0.55675,-0.0805369
0.557,-0.0508911
0.55725,0.00418371
0.5575,-0.041924
0.55775,-0.0597255
0.558,-0.0306676
0.55825,-0.0428965
0.5585,0.0334043
0.55875,0.00992725
0.559,0.00849925
0.55925,0.00834971
0.5595,0.0207524
0.55975,-0.0109761
0.56,0.0222927
0.56025,0.0766568
0.5605,0.0377538
0.56075,0.0820079
0.561,-0.0271837
0.56125,0.0102721
0.5615,0.0470228
0.56175,0.0468091
0.562,-0.0116261
0.56225,0.0202491
0.5625,0.0289418
0.56275,0.0184667
0.563,-0.0068729
0.56325,0.00445284
0.5635,0.00447025
0.56375,-0.0270201
0.564,-0.0175976
0.56425,0.0112798
0.5645,-0.00730266
0.56475,0.0486519
0.565,-0.000907636
0.56525,0.00376254
0.5655,0.0810256
0.56575,0.0497207
0.566,0.0598085
0.56625,0.0799441
0.5665,0.0888841
0.56675,0.114391
0.567,0.119559
0.56725,0.127304
0.5675,0.127245
0.56775,0.070606
0.568,0.129056
0.56825,0.100744
0.5685,0.0934365
0.56875,0.0677712
0.569,0.0948064
0.56925,0.130479
0.5695,0.156752
0.56975,0.125365
0.57,0.0332131
0.57025,0.072075
0.5705,0.0993281
0.57075,0.0874739
0.571,0.07886
0.57125,0.0362829
0.5715,0.00968306
0.57175,4.45E-02
0.572,0.028458
0.57225,-0.0153972
0.5725,-0.0217723
0.57275,0.0038184
0.573,-0.0316103
0.57325,-0.0344333
0.5735,0.0116372
0.57375,0.0131516
0.574,-0.032051
0.57425,-0.030444
0.5745,-0.0378666
0.57475,-0.02294
0.575,-0.0404729
0.57525,0.00158643
0.5755,-0.00903518
0.57575,-0.01573
0.576,-0.032974
0.57625,0.0121104
0.5765,-0.0105195
0.57675,-0.0174694
0.577,0.00464535
0.57725,-0.0125481
0.5775,0.0287904
0.57775,0.0430692
0.578,0.00727207
0.57825,-0.00837664
0.5785,0.0054563
0.57875,-0.00379784
0.579,-0.0189799
0.57925,0.0041805
0.5795,-0.0112729
0.57975,-0.054975
0.58,-0.0407273
0.58025,-0.047581
0.5805,-0.0162533
0.58075,-0.0324111
0.581,0.0075398
0.58125,-0.0235673
0.5815,-0.0285246
0.58175,-0.0374446
0.582,0.0103285
0.58225,-0.00328837
0.5825,0.0262514
0.58275,0.017653
0.583,0.0253886
0.58325,0.0455527
0.5835,0.0597189
0.58375,0.0663973
0.584,0.0379367
0.58425,0.103966
0.5845,0.0681252
0.58475,0.0543318
0.585,0.05679
0.58525,0.138248
0.5855,0.106219
0.58575,0.102396
0.586,0.111228
0.58625,0.113365
0.5865,0.105988
0.58675,0.0780654
0.587,0.0814745
0.58725,0.0935262
0.5875,0.0817278
0.58775,0.040464
0.588,0.0430149
0.58825,0.0126022
0.5885,0.0385182
0.58875,0.0591811
0.589,-0.0190689
0.58925,0.00277841
0.5895,0.0371963
0.58975,0.00620274
0.59,-0.0443007
0.59025,-0.0109175
0.5905,-0.00492458
0.59075,-0.0278511
0.591,-0.0232541
0.59125,-0.00273652
0.5915,-0.00761775
0.59175,0.00415705
0.592,-0.0138034
0.59225,0.00631125
0.5925,0.0262454
0.59275,-0.0358951
0.593,0.0442027
0.59325,0.00821479
0.5935,0.0421684
0.59375,0.0365154
0.594,-0.0173223
0.59425,0.0141222
0.5945,0.00128312
0.59475,-0.033665
0.595,-0.0523774
0.59525,-0.0340678
0.5955,-0.07616
0.59575,-0.0219672
0.596,-0.023486
0.59625,-0.00864001
0.5965,-0.0743847
0.59675,-0.0905741
0.597,-0.101021
0.59725,-0.109184
0.5975,-0.034237
0.59775,-0.101665
0.598,-0.0256707
0.59825,-0.0444882
0.5985,-0.0534589
0.59875,-0.0522128
0.599,-0.0333035
0.59925,-0.046977
0.5995,-0.024081
0.59975,-0.000536672
0.6,0.00360655
0.60025,0.0171853
0.6005,0.0097299
0.60075,0.0183242
0.601,0.0679075
0.60125,0.0607004
0.6015,0.0356849
0.60175,0.0970416
0.602,0.128214
0.60225,0.0162144
0.6025,0.045505
0.60275,0.0092651
0.603,0.0719422
0.60325,0.0202874
0.6035,0.0540946
0.60375,0.0573248
0.604,0.054999
0.60425,0.03266
0.6045,0.0523757
0.60475,0.0609054
0.605,-0.00771086
0.60525,0.0336826
0.6055,0.0257235
0.60575,0.0114532
0.606,-0.0282512
0.60625,-0.0319604
0.6065,0.0155029
0.60675,4.47E-03
0.607,0.00042586
0.60725,-0.00391226
0.6075,-0.0153171
0.60775,0.0326918
0.608,-0.0102413
0.60825,0.0162422
0.6085,0.0203754
0.60875,0.0216359
0.609,0.0315256
0.60925,0.0403203
0.6095,0.0126117
0.60975,-0.00992721
0.61,0.0368441
0.61025,0.0155069
0.6105,0.0419199
0.61075,-0.0297831
0.611,0.00640663
0.61125,0.00429468
0.6115,-0.00356747
0.61175,-0.0248866
0.612,-0.0475756
0.61225,-0.0732174
0.6125,-0.0830319
0.61275,-0.0256478
0.613,-0.0325762
0.61325,-0.0899554
0.6135,-0.12142
0.61375,-0.0630005
0.614,-0.103352
0.61425,-0.0412973
0.6145,-0.066731
0.61475,-0.097413
0.615,-0.0883435
0.61525,-0.133446
0.6155,-0.0405841
0.61575,-0.0377891
0.616,-0.0523105
0.61625,-0.0253066
0.6165,-0.0142465
0.61675,-0.039584
0.617,-0.0168703
0.61725,0.016072
0.6175,0.0186301
0.61775,0.00602603
0.618,0.0291809
0.61825,-0.000872337
0.6185,0.0184255
0.61875,0.0421189
0.619,0.0162832
0.61925,0.0639685
0.6195,0.0324404
0.61975,0.0601866
0.62,0.0616006
0.62025,0.0260711
0.6205,0.00517896
0.62075,0.00451243
0.621,0.0252351
0.62125,0.0378776
0.6215,-0.00339815
0.62175,-0.0413439
0.622,-0.00473479
0.62225,-0.0655862
0.6225,0.0229827
0.62275,-0.031805
0.623,0.0133812
0.62325,-4.14E-02
0.6235,-0.0113573
0.62375,0.0567082
0.624,-0.0159731
0.62425,0.0360302
0.6245,0.0211429
0.62475,-0.00155
0.625,5.60E-02
0.62525,0.0272698
0.6255,0.0060652
0.62575,0.0563833
0.626,0.068772
0.62625,0.0150544
0.6265,0.0668864
0.62675,0.0227315
0.627,0.0103263
0.62725,0.0388695
0.6275,0.0238766
0.62775,0.00541895
0.628,-0.000545958
0.62825,0.00152185
0.6285,0.0182487
0.62875,-0.012706
0.629,-0.0612579
0.62925,-0.0617242
0.6295,-0.040448
0.62975,-0.0400153
0.63,-0.0453119
0.63025,-0.109317
0.6305,-0.0866596
0.63075,-0.0465964
0.631,-0.0595611
0.63125,-0.125095
0.6315,-0.117748
0.63175,-0.0702985
0.632,-0.134244
0.63225,-0.0805259
0.6325,-0.0817229
0.63275,-0.109987
0.633,-0.0470033
0.63325,-0.0481751
0.6335,-0.0341575
0.63375,-0.018469
0.634,-0.00725299
0.63425,-0.0184156
0.6345,-0.0325088
0.63475,0.012442
0.635,0.0118549
0.63525,0.00553197
0.6355,0.0282498
0.63575,0.0385841
0.636,0.0264873
0.63625,0.0190636
0.6365,0.0413908
0.63675,0.0396307
0.637,0.0119025
0.63725,0.017143
0.6375,0.0135345
0.63775,0.00972013
0.638,-0.0171793
0.63825,-0.0222158
0.6385,0.0167771
0.63875,0.0404318
0.639,-0.00717557
0.63925,0.00457747
0.6395,0.0622683
0.63975,-0.0158445
0.64,-0.0407926
0.64025,0.0333853
0.6405,-0.00253452
0.64075,0.00938751
0.641,-0.00496388
0.64125,-0.0204091
0.6415,0.0133748
0.64175,0.00844376
0.642,0.0934287
0.64225,0.100641
0.6425,0.0612603
0.64275,0.0545268
0.643,0.102599
0.64325,0.0608256
0.6435,0.0786397
0.64375,0.0234942
0.644,0.0667126
0.64425,0.0181997
0.6445,0.0368407
0.64475,0.0247034
0.645,0.0296192
0.64525,0.0136786
0.6455,0.000304845
0.64575,-0.0160089
0.646,-0.0159135
0.64625,-0.021027
0.6465,-0.0489906
0.64675,-0.0447832
0.647,-0.101247
0.64725,-0.0515738
0.6475,-0.0902074
0.64775,-0.119153
0.648,-0.055863
0.64825,-0.101078
0.6485,-0.0558288
0.64875,-0.102141
0.649,-0.0774054
0.64925,-0.0812301
0.6495,-0.0256023
0.64975,-0.046446
0.65,-0.0404792
0.65025,-0.041753
0.6505,-0.0444793
0.65075,-0.0493933
0.651,0.0203933
0.65125,0.0110285
0.6515,-0.0661186
0.65175,-0.0599898
0.652,-0.0854156
0.65225,0.00878572
0.6525,-0.0180542
0.65275,0.00798152
0.653,-0.0268249
0.65325,0.0253179
0.6535,-0.00197815
0.65375,-0.0294669
0.654,-0.0194706
0.65425,-0.0117488
0.6545,-0.0279743
0.65475,-0.0147418
0.655,-0.0353257
0.65525,-0.0130204
0.6555,-0.0342514
0.65575,-0.0187847
0.656,0.0186834
0.65625,-0.00253156
0.6565,-0.0422553
0.65675,0.0374021
0.657,-0.00552519
0.65725,-0.00458103
0.6575,-0.000783301
0.65775,0.0274323
0.658,0.0460995
0.65825,0.00384683
0.6585,0.0206942
0.65875,0.0316887
0.659,0.0964737
0.65925,0.0575299
0.6595,0.0226961
0.65975,0.0582245
0.66,0.0641026
0.66025,0.0978246
0.6605,0.0828097
0.66075,0.0225561
0.661,0.050266
0.66125,0.0627783
0.6615,0.00296996
0.66175,0.0192667
0.662,0.0326528
0.66225,0.00431225
0.6625,-0.00240683
0.66275,-0.00157186
0.663,-0.00440721
0.66325,-0.0253199
0.6635,-0.0472376
0.66375,-0.0455521
0.664,-0.0492232
0.66425,-0.053837
0.6645,-0.0237129
0.66475,-0.0494225
0.665,-0.066805
0.66525,-0.0757535
0.6655,-0.118181
0.66575,-0.0703124
0.666,-0.0908828
0.66625,-0.057538
0.6665,-0.0543067
0.66675,-0.0522185
0.667,-0.0443388
0.66725,-0.0155062
0.6675,-0.0268178
0.66775,-0.0258563
0.668,0.0221405
0.66825,0.012063
0.6685,-0.0332601
0.66875,0.0290731
0.669,0.0198391
0.66925,-0.05448
0.6695,0.000170315
0.66975,0.00514582
0.67,0.0121054
0.67025,-0.0451449
0.6705,-0.0528768
0.67075,-0.0392174
0.671,-0.0470503
0.67125,-0.0501983
0.6715,-0.0153501
0.67175,-0.0555155
0.672,-0.0637061
0.67225,-0.037897
0.6725,-0.0147829
0.67275,-0.0644273
0.673,-0.019495
0.67325,-0.0444366
0.6735,-0.0479449
0.67375,-0.0287409
0.674,0.0205422
0.67425,-0.000523239
0.6745,-0.0182113
0.67475,0.0399831
0.675,0.015891
0.67525,0.0589988
0.6755,0.0585688
0.67575,0.00384093
0.676,0.0570188
0.67625,0.102446
0.6765,0.0618315
0.67675,0.0882746
0.677,0.157859
0.67725,0.0284005
0.6775,0.0886661
0.67775,0.127878
0.678,0.040632
0.67825,0.0554966
0.6785,0.0117319
0.67875,0.0601072
0.679,0.0615929
0.67925,0.0605817
0.6795,0.0150325
0.67975,0.0117216
0.68,-0.00217695
0.68025,0.00542821
0.6805,-0.0393761
0.68075,-0.018026
0.681,-0.0661389
0.68125,-0.0715933
0.6815,-0.0547405
0.68175,-0.0400683
0.682,-0.055928
0.68225,-0.0551683
0.6825,-0.0169516
0.68275,-0.0637518
0.683,-0.0477783
0.68325,-0.0390352
0.6835,-0.0261651
0.68375,-0.0427449
0.684,-0.0190222
0.68425,0.000555309
0.6845,-0.000901391
0.68475,-0.00239914
0.685,-0.0193669
0.68525,-0.0026324
0.6855,-0.0285383
0.68575,0.0317031
0.686,-0.042464
0.68625,-0.0417124
0.6865,-0.0736771
0.68675,-0.034308
0.687,0.00853928
0.68725,-0.0552319
0.6875,-0.0394895
0.68775,-0.0652365
0.688,-0.0952543
0.68825,-0.0836478
0.6885,-0.0983661
0.68875,-0.0492331
0.689,-0.10142
0.68925,-0.101267
0.6895,-0.0297939
0.68975,-0.0425092
0.69,-0.0606775
0.69025,-0.0078731
0.6905,-0.0120237
0.69075,-0.0252276
0.691,-0.00820401
0.69125,-0.0141414
0.6915,0.0112967
0.69175,0.00284034
0.692,0.0416444
0.69225,0.0227923
0.6925,0.052562
0.69275,0.0345003
0.693,0.0656392
0.69325,0.0359606
0.6935,0.104295
0.69375,0.0943584
0.694,0.0828816
0.69425,0.0724047
0.6945,0.11567
0.69475,0.00665227
0.695,0.0810841
0.69525,0.0268299
0.6955,0.101534
0.69575,0.0944566
0.696,0.0229425
0.69625,0.0759578
0.6965,0.0708731
0.69675,0.0543744
0.697,0.019546
0.69725,0.0365226
0.6975,0.0165283
0.69775,-0.028513
0.698,0.00508463
0.69825,-0.018728
0.6985,-0.00370871
0.69875,-0.0191793
0.699,-0.026427
0.69925,0.00487343
0.6995,0.00544444
0.69975,-0.0100218
0.7,0.00139535
0.70025,0.010936
0.7005,0.0043945
0.70075,0.00814731
0.701,0.00870785
0.70125,-0.0023657
0.7015,-0.0304627
0.70175,-0.00125239
0.702,-0.00132822
0.70225,0.0288641
0.7025,0.00939832
0.70275,-0.0176973
0.703,-0.0558296
0.70325,-0.0113185
0.7035,-0.0147253
0.70375,-0.0461825
0.704,-0.0857882
0.70425,-0.0803616
0.7045,-0.0822335
0.70475,-0.0402105
0.705,-0.0328516
0.70525,-0.0584341
0.7055,-0.0528463
0.70575,-0.141291
0.706,-0.0433096
0.70625,-0.111931
0.7065,-0.10138
0.70675,-0.0346295
0.707,-0.0665275
0.70725,-0.0573751
0.7075,-0.02196
0.70775,-0.0123039
0.708,-0.0360323
0.70825,-0.0157234
0.7085,-0.00728638
0.70875,0.00291408
0.709,0.00331263
0.70925,0.0376158
0.7095,0.0502585
0.70975,0.0657212
0.71,0.0513017
0.71025,0.0844642
0.7105,0.0779384
0.71075,0.0477989
0.711,0.0424245
0.71125,0.036481
0.7115,0.0366839
0.71175,0.046965
0.712,0.0292971
0.71225,0.0241793
0.7125,0.0213629
0.71275,0.0452076
0.713,0.0771891
0.71325,0.0686949
0.7135,0.0211589
0.71375,0.028682
0.714,0.0252019
0.71425,0.00712265
0.7145,0.0699679
0.71475,-0.000793033
0.715,0.060803
0.71525,0.0760753
0.7155,0.0254244
0.71575,0.0465565
0.716,0.0448615
0.71625,0.00852075
0.7165,0.0359594
0.71675,0.0227458
0.717,0.0457234
0.71725,0.02741
0.7175,0.0194813
0.71775,0.0535185
0.718,0.0119201
0.71825,0.045841
0.7185,0.06606
0.71875,0.0678377
0.719,0.00228346
0.71925,0.0234232
0.7195,-0.00554929
0.71975,0.00051518
0.72,-0.0136694
0.72025,-0.0334293
0.7205,-0.0263848
0.72075,-0.0183319
0.721,-0.0367183
0.72125,-0.0140226
0.7215,-0.0413216
0.72175,-0.122788
0.722,-0.0516034
0.72225,-0.110999
0.7225,-0.0946531
0.72275,-0.134694
0.723,-0.115638
0.72325,-0.114191
0.7235,-0.0464559
0.72375,-0.0982998
0.724,-0.0233701
0.72425,-0.0146917
0.7245,-0.0280851
0.72475,-0.0309248
0.725,-0.0369142
0.72525,0.00302976
0.7255,-0.0206357
0.72575,0.0143407
0.726,0.0126071
0.72625,0.00628874
0.7265,0.0302578
0.72675,0.0132457
0.727,0.0288395
0.72725,0.014265
0.7275,0.0515247
0.72775,0.0534189
0.728,0.0666889
0.72825,0.0325101
0.7285,0.0585558
0.72875,0.0310551
0.729,0.0143244
0.72925,0.0486604
0.7295,0.0214257
0.72975,0.0357997
0.73,0.0574449
0.73025,0.00643579
0.7305,0.0514638
0.73075,0.0300783
0.731,-0.0280531
0.73125,0.0250942
0.7315,0.0647862
0.73175,0.00180919
0.732,-0.00440425
0.73225,0.00763174
0.7325,0.0333784
0.73275,-0.0145881
0.733,-0.0140652
0.73325,0.0523918
0.7335,0.050074
0.73375,0.0506608
0.734,0.0370375
0.73425,0.0707193
0.7345,0.0954787
0.73475,0.0733882
0.735,0.0949789
0.73525,0.0323316
0.7355,0.0871489
0.73575,0.065451
0.736,0.0343955
0.73625,0.048998
0.7365,0.0427978
0.73675,-0.00328421
0.737,0.00167357
0.73725,-0.0200566
0.7375,-0.00424616
0.73775,-0.0470003
0.738,-0.0405576
0.73825,-0.0109277
0.7385,-0.0481324
0.73875,-0.0580909
0.739,-0.131742
0.73925,-0.11616
0.7395,-0.0309765
0.73975,-0.0933198
0.74,-0.135958
0.74025,-0.0772222
0.7405,-0.0618165
0.74075,-0.037792
0.741,-0.0479681
0.74125,-0.0774973
0.7415,-0.0485462
0.74175,-0.0152346
0.742,-0.0143833
0.74225,-0.0634577
0.7425,-0.00662929
0.74275,-0.0254621
0.743,0.0407344
0.74325,0.0317775
0.7435,-0.0132384
0.74375,-0.0202994
0.744,-0.0308958
0.74425,0.0289778
0.7445,-0.00404888
0.74475,0.000285546
0.745,0.0387295
0.74525,0.0255444
0.7455,0.0137892
0.74575,0.0135705
0.746,0.00313736
0.74625,0.000795159
0.7465,0.00604351
0.74675,-0.00914066
0.747,-0.0107521
0.74725,-0.0322782
0.7475,0.0331354
0.74775,-0.0267107
0.748,0.00388091
0.74825,-0.00396623
0.7485,0.0440645
0.74875,-0.0079574
0.749,0.0825558
0.74925,-0.019602
0.7495,0.0159501
0.74975,0.0436282
0.75,0.0789023
0.75025,0.0760465
0.7505,0.109061
0.75075,0.0841012
0.751,0.0459943
0.75125,0.0769377
0.7515,0.0761168
0.75175,0.110848
0.752,0.0743502
0.75225,0.0882652
0.7525,0.0964331
0.75275,0.0679398
0.753,0.0575941
0.75325,0.0422632
0.7535,0.0559104
0.75375,0.0158453
0.754,0.0167692
0.75425,0.00588764
0.7545,-0.00616392
0.75475,-0.00383753
0.755,-0.0368597
0.75525,-0.00638065
0.7555,-0.0126783
0.75575,-0.0977501
0.756,-0.0748168
0.75625,-0.0454417
0.7565,-0.10893
0.75675,-0.0730733
0.757,-0.110597
0.75725,-0.07734
0.7575,-0.0930701
0.75775,-0.10749
0.758,-0.0841344
0.75825,-0.00252754
0.7585,-0.074513
0.75875,-0.0462956
0.759,0.0186714
0.75925,0.0267219
0.7595,0.0389001
0.75975,-0.0174931
0.76,-0.0618572
0.76025,0.0313478
0.7605,0.041122
0.76075,-0.0612578
0.761,-0.0243294
0.76125,-0.010236
0.7615,-0.0136968
0.76175,-0.0345906
0.762,-0.00222856
0.76225,-0.0338783
0.7625,-0.00771261
0.76275,-0.0290139
0.763,-0.0190176
0.76325,-0.016625
0.7635,-0.0101984
0.76375,-0.0140224
0.764,-0.0335652
0.76425,-0.0206786
0.7645,-0.0323779
0.76475,-0.0618546
0.765,-0.026597
0.76525,0.0251086
0.7655,0.00861555
0.76575,0.0505593
0.766,-0.00384022
0.76625,0.01008
0.7665,0.0312474
0.76675,0.0709424
0.767,0.0508669
0.76725,0.0442621
0.7675,0.0789615
0.76775,0.0697147
0.768,0.0682765
0.76825,0.1503
0.7685,0.123708
0.76875,0.0937519
0.769,0.0698053
0.76925,0.108104
0.7695,0.036855
0.76975,0.0693925
0.77,0.00822292
0.77025,0.0274652
0.7705,0.0655111
0.77075,0.0276276
0.771,0.0258315
0.77125,0.00936254
0.7715,0.0144138
0.77175,-0.028293
0.772,-0.014902
0.77225,-0.0243766
0.7725,0.0028651
0.77275,-0.0613712
0.773,-0.00601944
0.77325,-0.028425
0.7735,-0.0297648
0.77375,-0.0469481
0.774,-0.0472883
0.77425,-0.0408564
0.7745,-0.021725
0.77475,-0.0204717
0.775,-0.0567003
0.77525,-0.0449164
0.7755,-0.0166128
0.77575,-0.0624531
0.776,-0.0272362
0.77625,-0.0236392
0.7765,-0.0627143
0.77675,-0.0123437
0.777,0.0122309
0.77725,-0.00415188
0.7775,-0.059057
0.77775,-0.0298126
0.778,-0.0301836
0.77825,0.0117886
0.7785,-0.0116669
0.77875,-0.0237628
0.779,-0.0477598
0.77925,-0.0774975
0.7795,-0.0323883
0.77975,-0.0678229
0.78,-0.0480098
0.78025,-0.012216
0.7805,-0.0581735
0.78075,-0.0616611
0.781,-0.0382301
0.78125,-0.0228688
0.7815,-0.0656869
0.78175,-0.0384932
0.782,-0.0447055
0.78225,-0.0387119
0.7825,0.00160102
0.78275,-0.00619814
0.783,0.00498141
0.78325,0.00430874
0.7835,0.0274034
0.78375,0.0450311
0.784,0.0709253
0.78425,0.0679354
0.7845,0.0282417
0.78475,0.0308874
0.785,0.114965
0.78525,0.0878479
0.7855,0.138881
0.78575,1.01E-01
0.786,0.069012
0.78625,0.0739706
0.7865,0.1205
0.78675,0.0736558
0.787,0.0375509
0.78725,0.0514622
0.7875,0.0428952
0.78775,-0.00906985
0.788,0.0584979
0.78825,0.0493295
0.7885,0.0242112
0.78875,0.0084997
0.789,0.0128426
0.78925,0.00565367
0.7895,-0.0165647
0.78975,-0.00889589
0.79,0.0109912
0.79025,-0.0248354
0.7905,-0.0455746
0.79075,-0.0298511
0.791,-0.0277074
0.79125,-1.02E-02
0.7915,-0.0161203
0.79175,-0.000344242
0.792,-0.00226301
0.79225,0.00437691
0.7925,-0.031897
0.79275,-0.00939846
0.793,-4.94E-03
0.79325,-0.0143002
0.7935,0.00471035
0.79375,-2.58E-02
0.794,-0.0152202
0.79425,0.0575674
0.7945,-0.0524853
0.79475,-0.0105875
0.795,-0.00450772
0.79525,-0.0867433
0.7955,0.000252389
0.79575,-0.0868666
0.796,-0.0824029
0.79625,-0.019032
0.7965,-0.0958018
0.79675,-0.0422197
0.797,-0.0498491
0.79725,-0.0824488
0.7975,-0.0643588
0.79775,-0.103498
0.798,-0.0315305
0.79825,-0.0327613
0.7985,-0.103075
0.79875,-0.0197419
0.799,-0.0228096
0.79925,-0.0359626
0.7995,-0.00859294
0.79975,-0.00923069
0.8,-0.000685857
0.80025,0.00530411
0.8005,0.0309986
0.80075,0.0508942
0.801,0.0606997
0.80125,0.0423131
0.8015,0.0304979
0.80175,0.0362458
0.802,0.116927
0.80225,0.0505431
0.8025,0.109912
0.80275,0.121579
0.803,0.0742631
0.80325,0.0407263
0.8035,0.09087
0.80375,0.070537
0.804,0.0382229
0.80425,0.0271807
0.8045,0.0472421
0.80475,-0.0150043
0.805,0.070892
0.80525,0.0176535
0.8055,-0.0167671
0.80575,-0.033629
0.806,0.0729515
0.80625,2.23E-02
0.8065,2.17E-05
0.80675,-0.0289894
0.807,0.0405213
0.80725,-0.0505656
0.8075,-0.00858875
0.80775,0.0308373
0.808,0.00520635
0.80825,0.00445819
0.8085,0.00683844
0.80875,0.0165342
0.809,0.0358162
0.80925,0.0307656
0.8095,0.0166887
0.80975,0.0123053
0.81,0.0397937
0.81025,0.0474283
0.8105,-0.0160867
0.81075,0.0375307
0.811,0.0181066
0.81125,-2.09E-02
0.8115,0.0119777
0.81175,-0.00790514
0.812,-0.0607309
0.81225,-0.0159379
0.8125,-9.30E-02
0.81275,-0.0414435
0.813,-0.109267
0.81325,-0.126626
0.8135,-0.0796002
0.81375,-0.107983
0.814,-0.102938
0.81425,-0.10603
0.8145,-0.0839122
0.81475,-0.0872918
0.815,-0.147725
0.81525,-0.0571409
0.8155,-0.0587834
0.81575,-0.0357174
0.816,-0.0698901
0.81625,-0.0575067
0.8165,-0.0173157
0.81675,-0.0102159
0.817,-0.0217735
0.81725,0.0210833
0.8175,0.00797175
0.81775,0.0369921
0.818,0.0423543
0.81825,0.0370575
0.8185,0.0525371
0.81875,0.0470727
0.819,0.0358243
0.81925,0.073298
0.8195,0.0294874
0.81975,0.0737922
0.82,0.0130501
0.82025,0.052495
0.8205,0.0280569
0.82075,0.0191574
0.821,0.0454239
0.82125,0.0584743
0.8215,-0.00686935
0.82175,-0.0185863
0.822,0.0310541
0.82225,0.0209009
0.8225,0.0704557
0.82275,0.0705784
0.823,-0.0065016
0.82325,0.0648216
0.8235,0.0184355
0.82375,0.0491283
0.824,0.0393109
0.82425,-0.012281
0.8245,0.0617363
0.82475,0.0553921
0.825,0.0507361
0.82525,0.0489614
0.8255,0.042895
0.82575,0.012111
0.826,0.0479894
0.82625,0.0750123
0.8265,0.0309661
0.82675,0.0266161
0.827,0.0191681
0.82725,0.0558712
0.8275,0.0507049
0.82775,-0.00445671
0.828,0.0274199
0.82825,-0.026557
0.8285,-0.0126969
0.82875,-0.0412027
0.829,-0.021017
0.82925,-0.011353
0.8295,-0.0759331
0.82975,-0.098636
0.83,-0.0140015
0.83025,-0.008683
0.8305,-0.0891633
0.83075,-0.117344
0.831,-0.0543562
0.83125,-0.0825625
0.8315,-0.0839449
0.83175,-0.0948164
0.832,-0.0749007
0.83225,-0.0945485
0.8325,-0.0749338
0.83275,-0.055443
0.833,-0.0214141
0.83325,-0.0782257
0.8335,0.00375698
0.83375,-0.00646107
0.834,-0.0276012
0.83425,0.0212115
0.8345,-0.0435314
0.83475,-0.0190831
0.835,-0.0402972
0.83525,0.0480977
0.8355,-0.00736544
0.83575,0.0423563
0.836,0.0358718
0.83625,0.0419432
0.8365,0.0449478
0.83675,0.0350929
0.837,0.0184236
0.83725,0.0128614
0.8375,0.0153947
0.83775,0.0137334
0.838,0.00753617
0.83825,-0.0179064
0.8385,-0.0155892
0.83875,0.0177969
0.839,-0.00259109
0.83925,0.0277023
0.8395,-0.0248699
0.83975,-0.0158215
0.84,-0.0203596
0.84025,0.00514765
0.8405,0.00387149
0.84075,0.0807694
0.841,0.000320604
0.84125,0.0733484
0.8415,0.0441922
0.84175,0.0444062
0.842,0.00502482
0.84225,0.0920894
0.8425,0.0194792
0.84275,0.0493336
0.843,0.0758971
0.84325,0.0877857
0.8435,0.0944294
0.84375,0.0858634
0.844,0.0811526
0.84425,0.0860137
0.8445,0.0555108
0.84475,0.0334692
0.845,0.0373078
0.84525,0.0328793
0.8455,0.00163304
0.84575,0.00061871
0.846,-0.00591009
0.84625,-0.01252
0.8465,-0.0134747
0.84675,-0.0255882
0.847,-0.0465311
0.84725,-0.0843003
0.8475,-0.0679425
0.84775,-0.031586
0.848,-0.104224
0.84825,-0.0711824
0.8485,-0.117953
0.84875,-0.0263752
0.849,-0.0779177
0.84925,-0.0580429
0.8495,-0.0638393
0.84975,-0.037639
0.85,-0.04871
0.85025,-0.0770492
0.8505,-0.02553
0.85075,0.015051
0.851,0.00852923
0.85125,-0.0511391
0.8515,0.00899643
0.85175,-0.0109323
0.852,0.0364298
0.85225,0.00196205
0.8525,0.0462009
0.85275,0.000230006
0.853,-0.0193835
0.85325,-0.00449868
0.8535,-0.00913772
0.85375,-0.014923
0.854,-0.00733395
0.85425,-0.00253797
0.8545,-0.0170808
0.85475,-0.00242046
0.855,-0.000930756
0.85525,-0.0256408
0.8555,-0.0549069
0.85575,0.0236449
0.856,0.00845769
0.85625,-0.0309943
0.8565,0.00604992
0.85675,-1.80E-02
0.857,0.0460242
0.85725,-0.0198082
0.8575,0.0522698
0.85775,0.0540785
0.858,0.0327833
0.85825,0.0259147
0.8585,0.0606924
0.85875,0.0878966
0.859,0.0419626
0.85925,0.0902989
0.8595,0.128664
0.85975,0.127457
0.86,0.0928156
0.86025,0.082767
0.8605,0.125851
0.86075,0.0304854
0.861,0.0514063
0.86125,0.0543123
0.8615,0.107837
0.86175,0.0264554
0.862,0.048572
0.86225,0.0470073
0.8625,0.0264648
0.86275,-0.00139077
0.863,-0.00188544
0.86325,-0.0217197
0.8635,-0.0275936
0.86375,-0.0158404
0.864,-0.0398807
0.86425,-0.0513455
0.8645,-0.0173493
0.86475,-0.0553199
0.865,-0.111172
0.86525,-0.0630637
0.8655,-0.0871362
0.86575,-0.100593
0.866,-0.0302532
0.86625,-0.0428436
0.8665,-0.0682237
0.86675,-0.0827609
0.867,-0.0361197
0.86725,-0.0298167
0.8675,-0.0679093
0.86775,0.000636867
0.868,0.0483676
0.86825,0.0130655
0.8685,-0.0058025
0.86875,0.00382761
0.869,-0.0625916
0.86925,-0.0231556
0.8695,-0.0221234
0.86975,0.0222008
0.87,-0.0247286
0.87025,0.0103695
0.8705,-0.0519946
0.87075,-0.0340992
0.871,-0.00858719
0.87125,-0.00435532
0.8715,-0.040915
0.87175,-0.0446625
0.872,-3.10E-02
0.87225,-0.0373909
0.8725,-0.0704
0.87275,-0.0588518
0.873,-0.0492323
0.87325,-0.0270996
0.8735,-0.0408509
0.87375,0.00600363
0.874,-0.0105222
0.87425,0.032376
0.8745,0.0213048
0.87475,-0.00725593
0.875,0.0429128
0.87525,0.00677611
0.8755,0.0442957
0.87575,0.0922062
0.876,0.0464056
0.87625,0.0338274
0.8765,0.0569393
0.87675,0.129613
0.877,0.0763775
0.87725,0.0983022
0.8775,0.0807126
0.87775,0.0431451
0.878,0.097027
0.87825,0.0941562
0.8785,0.0739593
0.87875,0.0621428
0.879,0.0261688
0.87925,0.0311136
0.8795,0.0328521
0.87975,0.0128148
0.88,0.00974711
0.88025,-0.0207469
0.8805,-0.00967167
0.88075,0.0207807
0.881,-0.00391434
0.88125,-0.0386809
0.8815,-0.0308167
0.88175,-0.0143047
0.882,-0.0196404
0.88225,-0.0143535
0.8825,-0.0342667
0.88275,-0.0421789
0.883,-0.0436793
0.88325,-0.00185173
0.8835,-0.0367333
0.88375,-0.037782
0.884,-0.0105913
0.88425,-0.0178297
0.8845,-0.0322819
0.88475,-0.0313035
0.885,0.0107769
0.88525,-0.078674
0.8855,-0.0171755
0.88575,-0.00829383
0.886,0.0138954
0.88625,-0.0255883
0.8865,-0.0212854
0.88675,-0.0877993
0.887,-0.0863505
0.88725,-0.0721752
0.8875,-0.00189048
0.88775,-0.0510402
0.888,-0.042158
0.88825,-0.0527408
0.8885,-0.0823707
0.88875,-0.0503418
0.889,-0.0605488
0.88925,-0.0848079
0.8895,-0.104298
0.88975,-0.0322963
0.89,-0.0457745
0.89025,-0.0376126
0.8905,-0.0624932
0.89075,-0.046191
0.891,-0.00156063
0.89125,-0.00561044
0.8915,0.00293951
0.89175,0.0152055
0.892,0.0156227
0.89225,0.0364262
0.8925,0.0466157
0.89275,0.045786
0.893,0.0841909
0.89325,0.10692
0.8935,0.0829995
0.89375,0.115133
0.894,0.122504
0.89425,0.0652011
0.8945,0.11526
0.89475,0.138705
0.895,0.0461503
0.89525,0.0898914
0.8955,0.0901493
0.89575,0.027001
0.896,0.0900292
0.89625,0.0564661
0.8965,0.0405001
0.89675,0.00460651
0.897,0.0493041
0.89725,-0.018205
0.8975,0.0523109
0.89775,0.00319367
0.898,-0.0644006
0.89825,0.0244058
0.8985,-0.00599058
0.89875,0.0185734
0.899,0.00502411
0.89925,0.0125287
0.8995,-0.00386377
0.89975,-0.011184
0.9,9.36E-05
0.90025,0.00933212
0.9005,0.0255315
0.90075,0.012859
0.901,0.00372853
0.90125,0.0193696
0.9015,0.00962596
0.90175,-0.0233958
0.902,0.0300762
0.90225,-0.00885218
0.9025,0.0171258
0.90275,-0.00824901
0.903,0.0261786
0.90325,0.00227314
0.9035,-0.00749668
0.90375,-0.0469731
0.904,-0.0497286
0.90425,-0.05368
0.9045,-0.0195808
0.90475,-0.066711
0.905,-0.038937
0.90525,-0.0449578
0.9055,-0.0523891
0.90575,-0.0433006
0.906,-0.145436
0.90625,-0.0998526
0.9065,-0.145274
0.90675,-0.0551349
0.907,-0.0483177
0.90725,-0.0125751
0.9075,-0.0460953
0.90775,-0.0605654
0.908,-0.0392028
0.90825,-0.0187155
0.9085,-3.05E-05
0.90875,-0.00176735
0.909,-0.000922101
0.90925,0.00783101
0.9095,0.0176057
0.90975,0.0658694
0.91,0.0504798
0.91025,0.099366
0.9105,0.0998013
0.91075,0.0822318
0.911,0.0728409
0.91125,0.0701444
0.9115,0.0419893
0.91175,0.0673737
0.912,0.0498189
0.91225,0.0399679
0.9125,0.0029111
0.91275,0.012253
0.913,0.0547983
0.91325,0.00814213
0.9135,0.060728
0.91375,-0.0203763
0.914,0.0394708
0.91425,-0.0257759
0.9145,0.0524788
0.91475,-0.00812749
0.915,0.0176117
0.91525,0.0500028
0.9155,0.00186417
0.91575,0.041893
0.916,0.0140417
0.91625,0.00999703
0.9165,0.00117197
0.91675,0.029258
0.917,1.74E-02
0.91725,0.0260032
0.9175,0.0346136
0.91775,0.0108111
0.918,0.0149355
0.91825,0.0391095
0.9185,-0.0071272
0.91875,0.0295638
0.919,0.0026589
0.91925,0.00691411
0.9195,-0.00416512
0.91975,0.0412691
0.92,-0.0215864
0.92025,-0.0125263
0.9205,-0.0625944
0.92075,-0.0423119
0.921,-0.0462658
0.92125,-0.060239
0.9215,-0.0604305
0.92175,-0.0182103
0.922,-0.140264
0.92225,-0.0405638
0.9225,-0.128148
0.92275,-0.135336
0.923,-0.15465
0.92325,-7.31E-02
0.9235,-0.0509971
0.92375,-0.0943031
0.924,-0.0898755
0.92425,-0.105452
0.9245,-0.089554
0.92475,-0.019406
0.925,-0.0571937
0.92525,0.00665848
0.9255,-0.020895
0.92575,-0.0132369
0.926,0.0227886
0.92625,0.0540456
0.9265,0.00164216
0.92675,-0.00462304
0.927,0.0498616
0.92725,0.0529388
0.9275,0.0251589
0.92775,0.0392467
0.928,0.0080626
0.92825,0.0386073
0.9285,0.0222994
0.92875,0.0275751
0.929,0.0190211
0.92925,0.00589356
0.9295,0.0126541
0.92975,0.00220732
0.93,3.69E-02
0.93025,0.0526026
0.9305,0.00291263
0.93075,0.0701059
0.931,-0.0571824
0.93125,-0.0120614
0.9315,0.0428818
0.93175,0.0696902
0.932,0.0637456
0.93225,0.0500195
0.9325,-0.0310768
0.93275,0.0438596
0.933,0.015677
0.93325,0.0508749
0.9335,0.0437966
0.93375,0.0223869
0.934,0.00628434
0.93425,0.083244
0.9345,0.0293124
0.93475,0.0721548
0.935,0.0828812
0.93525,0.0697296
0.9355,0.0086717
0.93575,0.0829228
0.936,0.0290554
0.93625,0.0200613
0.9365,0.0463136
0.93675,-0.00180732
0.937,-0.0133617
0.93725,-0.0181893
0.9375,-0.0333895
0.93775,-0.0411245
0.938,-0.00925234
0.93825,-0.00636371
0.9385,-0.0894966
0.93875,-0.0394752
0.939,-0.0731765
0.93925,-0.129787
0.9395,-0.101054
0.93975,-0.0888996
0.94,-0.120831
0.94025,-0.0579275
0.9405,-0.0805892
0.94075,-0.0262153
0.941,-0.103613
0.94125,-0.0859042
0.9415,-0.0611905
0.94175,-0.0807401
0.942,-0.0579981
0.94225,-0.000350511
0.9425,-0.0552733
0.94275,-0.0608064
0.943,0.00885927
0.94325,-0.0135074
0.9435,-0.0150952
0.94375,0.00673138
0.944,-0.00692372
0.94425,-0.00948929
0.9445,0.0535639
0.94475,0.0402559
0.945,-0.00197073
0.94525,0.0187311
0.9455,0.00485201
0.94575,0.00706495
0.946,-0.00784227
0.94625,-0.00351215
0.9465,0.00901362
0.94675,0.0048291
0.947,-0.0460958
0.94725,-0.0319842
0.9475,-0.0343428
0.94775,0.00234069
0.948,0.0608205
0.94825,-0.00366139
0.9485,0.072978
0.94875,-0.0180089
0.949,0.028671
0.94925,0.0592102
0.9495,0.090908
0.94975,0.0260297
0.95,2.06E-02
0.95025,0.0283433
0.9505,0.072582
0.95075,0.0972737
0.951,0.0606103
0.95125,0.0457557
0.9515,0.0772139
0.95175,0.0936353
0.952,0.0265483
0.95225,0.0984863
0.9525,0.0321556
0.95275,0.047128
0.953,0.0219591
0.95325,4.10E-02
0.9535,0.0170594
0.95375,0.00941593
0.954,0.0200816
0.95425,-0.00150764
0.9545,-0.0148833
0.95475,-0.0277762
0.955,-0.0425901
0.95525,-0.055554
0.9555,-0.0271104
0.95575,-0.0342775
0.956,-0.0597998
0.95625,-0.0608595
0.9565,-0.0625164
0.95675,-0.0917321
0.957,-0.064368
0.95725,-0.0968323
0.9575,-0.0846029
0.95775,-0.0812169
0.958,-0.0363431
0.95825,-0.0220528
0.9585,-0.0636718
0.95875,0.0115251
0.959,-0.0413136
0.95925,-0.00512991
0.9595,0.0220775
0.95975,-7.30E-03
0.96,-0.0567632
0.96025,-0.0130327
0.9605,-0.0692986
0.96075,-0.0668442
0.961,-0.0087486
0.96125,-0.00521869
0.9615,0.00522253
0.96175,0.0270174
0.962,-0.0414838
0.96225,-0.00958355
0.9625,-0.0279299
0.96275,-0.0174909
0.963,-0.0183825
0.96325,-0.0464151
0.9635,-0.0215732
0.96375,-0.0309397
0.964,-0.0624043
0.96425,-0.0516084
0.9645,-0.0470648
0.96475,0.00448693
0.965,0.0191293
0.96525,0.0148303
0.9655,-6.63E-03
0.96575,0.0622919
0.966,0.0587396
0.96625,0.0289955
0.9665,0.0471286
0.96675,0.013249
0.967,0.0740014
0.96725,0.0624386
0.9675,0.0709938
0.96775,0.0419198
0.968,0.0705842
0.96825,0.0852133
0.9685,0.128864
0.96875,0.0514174
0.969,0.0926008
0.96925,0.0922837
0.9695,0.113606
0.96975,0.065872
0.97,0.0328711
0.97025,0.0451789
0.9705,0.0463807
0.97075,0.0519829
0.971,0.0484393
0.97125,0.0266747
0.9715,0.000548307
0.97175,-0.0208216
0.972,-0.0346718
0.97225,-0.0432185
0.9725,-0.0123082
0.97275,-0.0358328
0.973,-0.0590131
0.97325,-0.0601127
0.9735,-0.00119728
0.97375,-0.0737523
0.974,-0.0505935
0.97425,-0.0312291
0.9745,-0.0472577
0.97475,-0.0173556
0.975,0.000505576
0.97525,-0.0627698
0.9755,0.0159533
0.97575,-0.0226032
0.976,-0.0443132
0.97625,0.000884936
0.9765,-0.0574329
0.97675,0.0125688
0.977,-0.0137749
0.97725,-0.0595293
0.9775,0.0198223
0.97775,-0.0592571
0.978,0.0423981
0.97825,-0.0357928
0.9785,-0.0454145
0.97875,0.00177123
0.979,-0.0443408
0.97925,-0.0370334
0.9795,-0.00145337
0.97975,-0.0289731
0.98,-0.0636686
0.98025,-0.0619096
0.9805,-0.0457698
0.98075,-0.0606337
0.981,-0.0497438
0.98125,-0.0242788
0.9815,-0.0195478
0.98175,-0.0289196
0.982,-0.0315396
0.98225,0.0124758
0.9825,0.0225458
0.98275,0.018573
0.983,0.0231112
0.98325,0.0139631
0.9835,0.0274201
0.98375,0.0344077
0.984,0.0681394
0.98425,0.072247
0.9845,0.0577725
0.98475,0.0497213
0.985,0.127489
0.98525,0.101457
0.9855,0.0862142
0.98575,0.138926
0.986,0.16788
0.98625,0.06936
0.9865,0.106753
0.98675,0.049167
0.987,0.0418006
0.98725,0.110998
0.9875,0.0441162
0.98775,0.0658096
0.988,0.00241587
0.98825,0.0307592
0.9885,0.0300105
0.98875,0.00415442
0.989,0.00575027
0.98925,-0.023818
0.9895,0.0371716
0.98975,-0.0127229
0.99,-0.0151119
0.99025,-0.0133957
0.9905,0.0136821
0.99075,-0.00739855
0.991,-0.00263604
0.99125,-0.00682623
0.9915,0.0087882
0.99175,0.00437156
0.992,0.00352057
0.99225,0.0234162
0.9925,-0.00252392
0.99275,0.0501729
0.993,-0.0165595
0.99325,-1.34E-02
0.9935,0.053194
0.99375,0.0142217
0.994,-0.00605495
0.99425,-0.0178192
0.9945,-0.0511686
0.99475,-0.0386759
0.995,-0.036777
0.99525,2.28E-02
0.9955,-0.0478656
0.99575,-0.0354833
0.996,-0.0498034
0.99625,-0.0707412
0.9965,-0.0689502
0.99675,-0.0165918
0.997,-0.0950493
0.99725,-0.0845926
0.9975,-0.0367659
0.99775,-0.0305707
0.998,-0.0715132
0.99825,-0.0373421
0.9985,0.0123907
0.99875,-0.032899
0.999,-0.0115891
0.99925,-0.0345011
0.9995,-2.02E-03
0.99975,0.0219668
1,0.0266701
1.00025,0.0456731
1.0005,0.050946
1.00075,0.0403054
1.001,0.0680833
1.00125,0.0875547
1.0015,0.0923793
1.00175,0.0688667
1.002,0.0516627
1.00225,0.106155
1.0025,0.131859
1.00275,0.0960128
1.003,0.14647
1.00325,0.101912
1.0035,7.58E-02
1.00375,0.0815327
1.004,0.0787505
1.00425,0.050085
1.0045,0.0504521
1.00475,0.0873461
1.005,0.0475146
1.00525,0.0573968
1.0055,0.0708095
1.00575,0.0390295
1.006,0.0594971
1.00625,0.0633278
1.0065,0.0407585
1.00675,0.0868349
1.007,0.0167249
1.00725,0.0306237
1.0075,0.0250637
1.00775,0.0185618
1.008,0.0327622
1.00825,0.0446003
1.0085,0.0648433
1.00875,0.0594505
1.009,0.0587606
1.00925,0.0565925
1.0095,0.0780991
1.00975,0.0539468
1.01,0.0435904
1.01025,0.0625692
1.0105,0.0859797
1.01075,0.0623051
1.011,0.0462919
1.01125,0.0171252
1.0115,0.0691824
1.01175,0.0403581
1.012,0.0415929
1.01225,0.049728
1.0125,0.0428937
1.01275,0.0377051
1.013,-0.0292285
1.01325,-0.00962459
1.0135,-0.0115308
1.01375,0.0244147
1.014,-0.0656131
1.01425,-0.101275
1.0145,-0.000884934
1.01475,-0.0369158
1.015,0.0123691
1.01525,-0.0794727
1.0155,0.00609516
1.01575,-0.0107536
1.016,0.0259471
1.01625,0.0251784
1.0165,0.0287588
1.01675,0.0161257
1.017,0.0233481
1.01725,0.0543317
1.0175,0.0530396
1.01775,0.0846258
1.018,0.110798
1.01825,0.117893
1.0185,0.0754095
1.01875,0.149613
1.019,0.0783631
1.01925,0.101999
1.0195,0.16845
1.01975,0.13266
1.02,0.126319
1.02025,0.124311
1.0205,0.0966911
1.02075,0.137477
1.021,0.112785
1.02125,0.0644254
1.0215,0.130534
1.02175,0.0801968
1.022,0.0722406
1.02225,0.127111
1.0225,0.043323
1.02275,0.0534002
1.023,0.0765688
1.02325,0.0728083
1.0235,0.0312309
1.02375,0.0214516
1.024,0.0452223
1.02425,0.143121
1.0245,0.117912
1.02475,0.139152
1.025,0.124494
1.02525,0.094515
1.0255,0.107801
1.02575,0.122589
1.026,0.125592
1.02625,0.17164
1.0265,0.0976818
1.02675,0.160707
1.027,0.156068
1.02725,0.152453
1.0275,0.137447
1.02775,0.117717
1.028,0.110429
1.02825,0.108985
1.0285,0.0694885
1.02875,0.09098
1.029,0.0978433
1.02925,0.0820388
1.0295,0.0865662
1.02975,0.0467447
1.03,0.0537783
1.03025,0.00799054
1.0305,0.0236828
1.03075,0.0595331
1.031,0.0385476
1.03125,0.0418936
1.0315,-0.0101551
1.03175,0.0431928
1.032,0.0910062
1.03225,0.0176658
1.0325,0.0164876
1.03275,0.0693333
1.033,0.0661932
1.03325,0.0897837
1.0335,0.116134
1.03375,0.111982
1.034,0.129434
1.03425,0.111481
1.0345,0.160815
1.03475,0.143218
1.035,0.170007
1.03525,0.124668
1.0355,0.143601
1.03575,0.109888
1.036,0.151845
1.03625,0.170456
1.0365,0.145492
1.03675,0.129842
1.037,0.157564
1.03725,0.167769
1.0375,0.132852
1.03775,0.159666
1.038,0.125351
1.03825,0.135519
1.0385,0.133873
1.03875,0.132732
1.039,0.149454
1.03925,0.146611
1.0395,0.212699
1.03975,0.196751
1.04,0.0935072
1.04025,0.15848
1.0405,0.167267
1.04075,0.223118
1.041,0.215049
1.04125,0.157999
1.0415,0.157396
1.04175,0.189273
1.042,0.253493
1.04225,0.213853
1.0425,0.177469
1.04275,0.241272
1.043,0.184757
1.04325,0.190935
1.0435,0.223282
1.04375,0.169813
1.044,0.168866
1.04425,0.235761
1.0445,0.220731
1.04475,0.225723
1.045,0.200003
1.04525,0.191492
1.0455,0.171398
1.04575,0.164852
1.046,0.155405
1.04625,0.162264
1.0465,0.127118
1.04675,0.106196
1.047,0.114763
1.04725,0.0929781
1.0475,0.158199
1.04775,0.110041
1.048,0.118989
1.04825,0.116199
1.0485,0.09872
1.04875,0.0628427
1.049,0.0639486
1.04925,0.14348
1.0495,0.154718
1.04975,0.174626
1.05,0.151232
1.05025,0.101026
1.0505,0.114306
1.05075,0.176964
1.051,0.156005
1.05125,0.216512
1.0515,0.177584
1.05175,0.188169
1.052,0.20835
1.05225,0.185012
1.0525,0.192058
1.05275,0.190674
1.053,0.183628
1.05325,0.196562
1.0535,0.187263
1.05375,0.19936
1.054,0.204131
1.05425,0.198832
1.0545,0.201476
1.05475,0.197308
1.055,0.192075
1.05525,0.183492
1.0555,0.194011
1.05575,0.233852
1.056,0.216346
1.05625,0.223944
1.0565,0.199574
1.05675,0.202598
1.057,0.236144
1.05725,0.258043
1.0575,0.268031
1.05775,0.233672
1.058,0.296564
1.05825,0.269171
1.0585,0.283106
1.05875,0.331719
1.059,0.287698
1.05925,0.328056
1.0595,0.301885
1.05975,0.332698
1.06,0.259832
1.06025,0.249659
1.0605,0.34718
1.06075,0.353479
1.061,0.305717
1.06125,0.343678
1.0615,0.332512
1.06175,0.298546
1.062,0.280924
1.06225,0.301293
1.0625,0.293022
1.06275,0.28652
1.063,0.259822
1.06325,0.267356
1.0635,0.232273
1.06375,0.249482
1.064,0.202253
1.06425,0.207544
1.0645,0.219989
1.06475,0.181564
1.065,0.206804
1.06525,0.243082
1.0655,0.222628
1.06575,0.242151
1.066,0.194354
1.06625,0.26897
1.0665,0.267411
1.06675,0.278165
1.067,0.292699
1.06725,0.220357
1.0675,0.316795
1.06775,0.33839
1.068,0.268102
1.06825,0.328608
1.0685,0.277048
1.06875,0.241807
1.069,0.280961
1.06925,0.269734
1.0695,0.29428
1.06975,0.326884
1.07,0.262844
1.07025,0.288219
1.0705,0.288702
1.07075,0.296769
1.071,0.314049
1.07125,0.288157
1.0715,0.264175
1.07175,0.28815
1.072,0.297354
1.07225,0.310944
1.0725,0.269911
1.07275,0.269589
1.073,0.269528
1.07325,0.329569
1.0735,0.337136
1.07375,0.283785
1.074,0.341288
1.07425,0.326486
1.0745,0.344445
1.07475,0.369923
1.075,0.372596
1.07525,0.425168
1.0755,0.39189
1.07575,0.432535
1.076,0.454055
1.07625,0.411369
1.0765,0.456966
1.07675,0.462541
1.077,0.39615
1.07725,0.436561
1.0775,0.419282
1.07775,0.388752
1.078,0.512598
1.07825,0.464742
1.0785,0.435967
1.07875,0.464732
1.079,0.41307
1.07925,0.392632
1.0795,0.375486
1.07975,0.35663
1.08,0.407529
1.08025,0.399852
1.0805,0.356404
1.08075,0.38848
1.081,0.375564
1.08125,0.382198
1.0815,0.346844
1.08175,0.354184
1.082,0.395624
1.08225,0.342545
1.0825,0.370706
1.08275,0.366983
1.083,0.398525
1.08325,0.374859
1.0835,0.40131
1.08375,0.399942
1.084,0.415587
1.08425,0.399477
1.0845,0.40783
1.08475,0.381039
1.085,0.465735
1.08525,0.421654
1.0855,0.398601
1.08575,0.391392
1.086,0.39617
1.08625,0.39557
1.0865,0.453788
1.08675,0.391473
1.087,0.391331
1.08725,0.385717
1.0875,0.424129
1.08775,0.352338
1.088,0.407089
1.08825,0.405183
1.0885,0.375978
1.08875,0.421181
1.089,0.336856
1.08925,0.381245
1.0895,0.399215
1.08975,0.397918
1.09,0.424114
1.09025,0.402014
1.0905,0.402234
1.09075,0.418881
1.091,0.442772
1.09125,0.45089
1.0915,0.463895
1.09175,0.482694
1.092,0.482311
1.09225,0.516191
1.0925,0.486726
1.09275,0.565385
1.093,0.525527
1.09325,0.562242
1.0935,0.585816
1.09375,0.570615
1.094,0.54178
1.09425,0.614485
1.0945,0.604671
1.09475,0.559745
1.095,0.529597
1.09525,0.576867
1.0955,0.507814
1.09575,0.541738
1.096,0.501143
1.09625,0.550388
1.0965,0.507014
1.09675,0.538566
1.097,0.468581
1.09725,0.525627
1.0975,0.491645
1.09775,0.541965
1.098,0.498686
1.09825,0.514061
1.0985,0.547366
1.09875,0.474416
1.099,0.505562
1.09925,0.507386
1.0995,0.512721
1.09975,0.524753
1.1,0.527201
1.10025,0.537614
1.1005,0.531211
1.10075,0.535867
1.101,0.553657
1.10125,0.56485
1.1015,0.544452
1.10175,0.598271
1.102,0.559903
1.10225,0.59264
1.1025,0.579254
1.10275,0.532842
1.103,0.495423
1.10325,0.488558
1.1035,0.551131
1.10375,0.473741
1.104,0.542001
1.10425,0.462516
1.1045,0.476985
1.10475,0.517289
1.105,0.530652
1.10525,0.46526
1.1055,0.459796
1.10575,0.513384
1.106,0.484019
1.10625,0.457365
1.1065,0.433382
1.10675,0.4921
1.107,0.518408
1.10725,0.503222
1.1075,0.483414
1.10775,0.561814
1.108,0.556328
1.10825,0.576391
1.1085,0.58723
1.10875,0.598778
1.109,0.594934
1.10925,0.631344
1.1095,0.641146
1.10975,0.60763
1.11,0.652737
1.11025,0.59949
1.1105,0.682483
1.11075,0.648449
1.111,0.701075
1.11125,0.672598
1.1115,0.658235
1.11175,0.624378
1.112,0.686384
1.11225,0.684728
1.1125,0.630932
1.11275,0.666348
1.113,0.667145
1.11325,0.699843
1.1135,0.637483
1.11375,0.660778
1.114,0.67032
1.11425,0.645136
1.1145,0.627484
1.11475,0.668006
1.115,0.635516
1.11525,0.69024
1.1155,0.68204
1.11575,0.670047
1.116,0.603943
1.11625,0.630391
1.1165,0.661978
1.11675,0.665114
1.117,0.66633
1.11725,0.6566
1.1175,0.665757
1.11775,0.696377
1.118,0.684305
1.11825,0.692986
1.1185,0.691917
1.11875,0.654436
1.119,0.62103
1.11925,0.627543
1.1195,0.627498
1.11975,0.648987
1.12,0.633051
1.12025,0.652023
1.1205,0.626771
1.12075,0.617264
1.121,0.591543
1.12125,0.558927
1.1215,0.608394
1.12175,0.57304
1.122,0.648313
1.12225,0.539186
1.1225,0.508015
1.12275,0.533009
1.123,0.541651
1.12325,0.630252
1.1235,0.620199
1.12375,0.641284
1.124,0.631269
1.12425,0.650596
1.1245,0.606911
1.12475,0.609794
1.125,0.617809
1.12525,0.637141
1.1255,0.673113
1.12575,0.661397
1.126,0.689254
1.12625,0.672553
1.1265,0.678661
1.12675,0.704919
1.127,0.701596
1.12725,0.744627
1.1275,0.691567
1.12775,0.721792
1.128,0.697569
1.12825,0.721565
1.1285,0.733399
1.12875,0.715619
1.129,0.689159
1.12925,0.707236
1.1295,0.717396
1.12975,0.719186
1.13,0.705314
1.13025,0.688187
1.1305,0.65763
1.13075,0.648729
1.131,0.624574
1.13125,6.98E-01
1.1315,0.674868
1.13175,0.768482
1.132,0.644574
1.13225,0.740094
1.1325,0.657303
1.13275,0.699617
1.133,0.75469
1.13325,0.714957
1.1335,0.742387
1.13375,0.745031
1.134,0.722475
1.13425,0.699382
1.1345,0.73106
1.13475,0.761602
1.135,0.786218
1.13525,0.769211
1.1355,0.766035
1.13575,0.698832
1.136,0.74285
1.13625,0.729838
1.1365,0.6932
1.13675,0.696551
1.137,0.683555
1.13725,0.670285
1.1375,0.674783
1.13775,0.656809
1.138,0.631025
1.13825,0.685243
1.1385,0.605255
1.13875,0.604962
1.139,0.66829
1.13925,0.654239
1.1395,0.612543
1.13975,0.643408
1.14,0.589508
1.14025,0.613838
1.1405,0.651868
1.14075,0.68483
1.141,0.625204
1.14125,0.669498
1.1415,0.595281
1.14175,0.612339
1.142,0.645481
1.14225,0.639224
1.1425,0.666284
1.14275,0.70113
1.143,0.66744
1.14325,0.711822
1.1435,0.679442
1.14375,0.73167
1.144,0.743253
1.14425,0.726401
1.1445,0.694273
1.14475,0.714409
1.145,0.70456
1.14525,0.712962
1.1455,0.705459
1.14575,0.706012
1.146,0.695554
1.14625,0.707035
1.1465,0.686548
1.14675,0.664345
1.147,0.704247
1.14725,0.680711
1.1475,0.693788
1.14775,0.686562
1.148,0.697403
1.14825,0.725097
1.1485,0.695297
1.14875,0.671687
1.149,0.728784
1.14925,0.736626
1.1495,0.704715
1.14975,0.755503
1.15,0.783333
1.15025,0.736388
1.1505,0.743338
1.15075,0.748629
1.151,0.768545
1.15125,0.810328
1.1515,0.797026
1.15175,0.780241
1.152,0.785262
1.15225,0.711669
1.1525,0.786194
1.15275,0.72626
1.153,0.717949
1.15325,0.747933
1.1535,0.720193
1.15375,0.697686
1.154,0.693897
1.15425,0.679864
1.1545,0.663068
1.15475,0.654776
1.155,0.656473
1.15525,0.645622
1.1555,0.599334
1.15575,0.580124
1.156,0.613122
1.15625,0.633623
1.1565,0.605706
1.15675,0.569409
1.157,0.588643
1.15725,0.640345
1.1575,0.610386
1.15775,0.630655
1.158,0.61851
1.15825,0.645984
1.1585,0.616637
1.15875,0.568688
1.159,0.589046
1.15925,0.644268
1.1595,0.6399
1.15975,0.597868
1.16,0.673806
1.16025,0.642799
1.1605,0.624998
1.16075,0.621402
1.161,0.636792
1.16125,0.65787
1.1615,0.650554
1.16175,0.666923
1.162,0.629257
1.16225,0.608219
1.1625,0.613917
1.16275,0.599866
1.163,0.606101
1.16325,0.624661
1.1635,0.581701
1.16375,0.625662
1.164,0.61161
1.16425,0.590333
1.1645,0.574631
1.16475,0.608704
1.165,0.589287
1.16525,0.602554
1.1655,0.662823
1.16575,0.611287
1.166,0.648784
1.16625,0.674202
1.1665,0.645996
1.16675,0.649178
1.167,0.681683
1.16725,0.675701
1.1675,0.720903
1.16775,0.715295
1.168,0.729485
1.16825,0.629597
1.1685,0.631666
1.16875,0.651191
1.169,0.617454
1.16925,0.696415
1.1695,0.647743
1.16975,0.68866
1.17,0.643784
1.17025,0.645159
1.1705,0.624867
1.17075,0.636144
1.171,0.597587
1.17125,0.590388
1.1715,0.619192
1.17175,0.600243
1.172,0.534168
1.17225,0.570247
1.1725,0.574599
1.17275,0.563776
1.173,0.514664
1.17325,0.550673
1.1735,0.559739
1.17375,0.494916
1.174,0.492954
1.17425,0.519762
1.1745,0.521883
1.17475,0.54207
1.175,0.488467
1.17525,0.487144
1.1755,0.480327
1.17575,0.502376
1.176,0.555484
1.17625,0.472195
1.1765,0.503975
1.17675,0.553715
1.177,0.537325
1.17725,0.478425
1.1775,0.516223
1.17775,0.506737
1.178,0.503542
1.17825,0.48122
1.1785,0.467666
1.17875,0.464137
1.179,0.514186
1.17925,0.497161
1.1795,0.496147
1.17975,0.424469
1.18,0.486649
1.18025,0.432829
1.1805,0.467361
1.18075,0.415066
1.181,0.446363
1.18125,0.487492
1.1815,0.432805
1.18175,0.466004
1.182,0.454097
1.18225,0.436029
1.1825,0.489124
1.18275,0.484711
1.183,0.485043
1.18325,0.483784
1.1835,0.53119
1.18375,0.511475
1.184,0.527137
1.18425,0.514591
1.1845,0.506671
1.18475,0.550061
1.185,0.480674
1.18525,0.547699
1.1855,0.476363
1.18575,0.515518
1.186,0.503848
1.18625,0.501233
1.1865,0.530962
1.18675,0.514289
1.187,0.485095
1.18725,0.458077
1.1875,0.485091
1.18775,0.472995
1.188,0.413741
1.18825,0.412854
1.1885,0.433647
1.18875,0.420392
1.189,0.389389
1.18925,0.368482
1.1895,0.366881
1.18975,0.367706
1.19,0.379161
1.19025,0.404627
1.1905,0.387056
1.19075,0.347282
1.191,0.373241
1.19125,0.362033
1.1915,0.376192
1.19175,0.375485
1.192,0.376816
1.19225,0.344507
1.1925,0.409402
1.19275,0.390485
1.193,0.317065
1.19325,0.298596
1.1935,0.397664
1.19375,0.405361
1.194,0.312144
1.19425,0.282327
1.1945,0.381733
1.19475,0.35169
1.195,0.362688
1.19525,0.296202
1.1955,0.289944
1.19575,0.321689
1.196,0.313369
1.19625,0.322558
1.1965,0.235333
1.19675,0.308603
1.197,0.227431
1.19725,0.23991
1.1975,0.235539
1.19775,0.256775
1.198,0.220691
1.19825,0.248786
1.1985,0.285688
1.19875,0.256777
1.199,0.223371
1.19925,0.268141
1.1995,0.263774
1.19975,0.278624
1.2,0.281172
1.20025,0.285728
1.2005,0.29992
1.20075,0.315159
1.201,0.290532
1.20125,0.318503
1.2015,0.287154
1.20175,0.302659
1.202,0.304635
1.20225,0.365955
1.2025,0.305341
1.20275,0.306155
1.203,0.341684
1.20325,0.282928
1.2035,0.330443
1.20375,0.282221
1.204,0.252737
1.20425,0.226401
1.2045,0.269962
1.20475,0.249207
1.205,0.284034
1.20525,0.258343
1.2055,0.217579
1.20575,0.227319
1.206,0.206511
1.20625,0.207243
1.2065,0.172062
1.20675,0.15737
1.207,0.186435
1.20725,0.166175
1.2075,0.199517
1.20775,0.193754
1.208,0.170541
1.20825,0.196046
1.2085,0.186051
1.20875,0.190317
1.209,0.181107
1.20925,0.192744
1.2095,0.208938
1.20975,0.164473
1.21,0.131769
1.21025,0.167649
1.2105,0.175948
1.21075,0.180079
1.211,0.132774
1.21125,0.128957
1.2115,0.105233
1.21175,0.107817
1.212,0.149277
1.21225,0.0657851
1.2125,0.0626599
1.21275,0.0360343
1.213,0.018383
1.21325,0.0349743
1.2135,0.0747422
1.21375,0.0697165
1.214,-0.0511457
1.21425,0.0132563
1.2145,0.0215938
1.21475,-0.0286104
1.215,-0.0389615
1.21525,0.0786687
1.2155,0.00921443
1.21575,0.0235765
1.216,0.0387326
1.21625,0.0730071
1.2165,0.0608164
1.21675,0.056531
1.217,0.0704144
1.21725,0.087321
1.2175,0.0860456
1.21775,0.0890855
1.218,0.0605268
1.21825,0.0558981
1.2185,0.0712692
1.21875,0.110669
1.219,0.118593
1.21925,0.115498
1.2195,0.0693215
1.21975,0.0499296
1.22,0.0511011
1.22025,0.105154
1.2205,0.0766487
1.22075,0.0580445
1.221,0.0400289
1.22125,0.0563348
1.2215,0.00584291
1.22175,0.0384427
1.222,-0.0116395
1.22225,0.0721886
1.2225,-0.00987639
1.22275,0.0682855
1.223,0.0153557
1.22325,0.0100239
1.2235,-0.0107564
1.22375,-0.0260687
1.224,0.0318114
1.22425,0.0614576
1.2245,-0.0181412
1.22475,0.0409499
1.225,-0.0108143
1.22525,0.0137071
1.2255,0.00188872
1.22575,0.000952015
1.226,0.0143655
1.22625,0.00805448
1.2265,0.015179
1.22675,0.0267981
1.227,-0.0140017
1.22725,-0.017727
1.2275,0.00551381
1.22775,-0.01363
1.228,-0.0372976
1.22825,-0.0184896
1.2285,-0.0547272
1.22875,-0.0751961
1.229,-0.0770571
1.22925,-0.119871
1.2295,-0.0982089
1.22975,-0.153226
1.23,-0.118839
1.23025,-0.190893
1.2305,-0.119577
1.23075,-0.205111
1.231,-0.155652
1.23125,-0.245047
1.2315,-0.192637
1.23175,-0.133032
1.232,-0.234391
1.23225,-0.129449
1.2325,-0.183169
1.23275,-0.145358
1.233,-0.163839
1.23325,-1.62E-01
1.2335,-0.16175
1.23375,-0.131146
1.234,-0.159423
1.23425,-0.140792
1.2345,-0.135017
1.23475,-0.115427
1.235,-0.12756
1.23525,-0.0978724
1.2355,-0.114932
1.23575,-0.127315
1.236,-0.0851872
1.23625,-0.113921
1.2365,-0.119451
1.23675,-0.133197
1.237,-0.139038
1.23725,-0.14793
1.2375,-0.139128
1.23775,-0.157736
1.238,-0.129915
1.23825,-0.175437
1.2385,-0.183907
1.23875,-0.165976
1.239,-0.143868
1.23925,-0.0938298
1.2395,-0.177468
1.23975,-0.128053
1.24,-0.210032
1.24025,-0.230166
1.2405,-0.227012
1.24075,-0.137489
1.241,-0.140717
1.24125,-0.160108
1.2415,-0.141653
1.24175,-0.128182
1.242,-0.155734
1.24225,-0.184675
1.2425,-0.121856
1.24275,-1.77E-01
1.243,-0.162568
1.24325,-0.112715
1.2435,-0.202023
1.24375,-0.137424
1.244,-0.143832
1.24425,-0.19665
1.2445,-0.156539
1.24475,-0.156828
1.245,-0.176619
1.24525,-0.208336
1.2455,-0.20611
1.24575,-0.230733
1.246,-0.23308
1.24625,-0.270399
1.2465,-0.24394
1.24675,-0.257318
1.247,-0.282257
1.24725,-0.267272
1.2475,-0.260282
1.24775,-0.331743
1.248,-0.339664
1.24825,-0.266713
1.2485,-0.31412
1.24875,-0.35337
1.249,-0.344135
1.24925,-0.337628
1.2495,-0.253911
1.24975,-0.269416
1.25,-0.280474
1.25025,-0.283943
1.2505,-0.2487
1.25075,-0.292136
1.251,-0.280027
1.25125,-0.296443
1.2515,-0.290778
1.25175,-0.303844
1.252,-0.287723
1.25225,-0.217839
1.2525,-0.260427
1.25275,-0.291374
1.253,-0.281506
1.25325,-0.282242
1.2535,-0.263981
1.25375,-0.270021
1.254,-0.286054
1.25425,-0.276004
1.2545,-0.291262
1.25475,-0.296302
1.255,-0.288613
1.25525,-0.302533
1.2555,-0.291479
1.25575,-0.291811
1.256,-0.316685
1.25625,-0.312588
1.2565,-0.312428
1.25675,-0.326003
1.257,-0.300843
1.25725,-0.217329
1.2575,-0.258728
1.25775,-0.233739
1.258,-0.216522
1.25825,-0.211783
1.2585,-0.201265
1.25875,-0.193724
1.259,-0.238235
1.25925,-0.200689
1.2595,-0.228718
1.25975,-0.164084
1.26,-0.229545
1.26025,-0.247096
1.2605,-0.191166
1.26075,-0.238012
1.261,-0.208748
1.26125,-0.227531
1.2615,-0.232545
1.26175,-0.26152
1.262,-0.241316
1.26225,-0.240759
1.2625,-0.295547
1.26275,-0.297467
1.263,-0.3069
1.26325,-0.3213
1.2635,-0.332936
1.26375,-0.361245
1.264,-0.328751
1.26425,-0.34859
1.2645,-0.378926
1.26475,-0.340665
1.265,-0.363505
1.26525,-0.364963
1.2655,-0.347747
1.26575,-0.371069
1.266,-0.408
1.26625,-0.352059
1.2665,-0.326427
1.26675,-0.336287
1.267,-0.34975
1.26725,-0.310387
1.2675,-0.349573
1.26775,-0.379589
1.268,-0.301472
1.26825,-0.300187
1.2685,-0.320804
1.26875,-0.297122
1.269,-0.267001
1.26925,-0.316111
1.2695,-0.38319
1.26975,-0.295653
1.27,-0.329197
1.27025,-0.32401
1.2705,-0.368514
1.27075,-0.355941
1.271,-0.311431
1.27125,-0.357268
1.2715,-0.345355
1.27175,-0.376837
1.272,-0.343942
1.27225,-0.347347
1.2725,-0.330214
1.27275,-0.330044
1.273,-0.319439
1.27325,-0.334473
1.2735,-0.306434
1.27375,-0.327824
1.274,-0.296516
1.27425,-0.30731
1.2745,-0.322151
1.27475,-0.279447
1.275,-0.286895
1.27525,-0.231996
1.2755,-0.254597
1.27575,-0.242818
1.276,-0.199941
1.27625,-0.277704
1.2765,-0.239426
1.27675,-0.240946
1.277,-0.251722
1.27725,-0.177781
1.2775,-0.202178
1.27775,-0.262695
1.278,-0.154066
1.27825,-0.215841
1.2785,-0.219143
1.27875,-0.261203
1.279,-0.236668
1.27925,-0.293008
1.2795,-0.300411
1.27975,-0.245849
1.28,-0.269147
1.28025,-0.277952
1.2805,-0.342687
1.28075,-0.339382
1.281,-0.331366
1.28125,-0.281737
1.2815,-0.31448
1.28175,-0.315006
1.282,-0.319903
1.28225,-0.310921
1.2825,-0.309251
1.28275,-0.334166
1.283,-0.291578
1.28325,-0.288803
1.2835,-0.290082
1.28375,-0.303361
1.284,-0.321993
1.28425,-0.337777
1.2845,-0.319847
1.28475,-0.273961
1.285,-0.306549
1.28525,-0.221849
1.2855,-0.259782
1.28575,-0.273722
1.286,-0.259808
1.28625,-0.317851
1.2865,-0.241621
1.28675,-0.277897
1.287,-0.286184
1.28725,-0.294277
1.2875,-0.358174
1.28775,-0.295271
1.288,-0.345157
1.28825,-0.342556
1.2885,-0.36178
1.28875,-0.314699
1.289,-0.357471
1.28925,-0.306605
1.2895,-0.353387
1.28975,-0.269481
1.29,-0.268728
1.29025,-0.316532
1.2905,-0.266497
1.29075,-0.281357
1.291,-0.250844
1.29125,-0.259852
1.2915,-0.24867
1.29175,-0.228768
1.292,-0.223869
1.29225,-0.204207
1.2925,-0.158979
1.29275,-0.214108
1.293,-0.156796
1.29325,-0.169241
1.2935,-0.128798
1.29375,-0.175141
1.294,-0.110826
1.29425,-0.126538
1.2945,-0.163628
1.29475,-0.15504
1.295,-0.182644
1.29525,-0.135334
1.2955,-0.200317
1.29575,-0.18091
1.296,-0.197668
1.29625,-0.228722
1.2965,-0.139111
1.29675,-0.189258
1.297,-0.227638
1.29725,-0.251253
1.2975,-0.243316
1.29775,-0.177853
1.298,-0.274851
1.29825,-0.211879
1.2985,-0.191193
1.29875,-0.173984
1.299,-0.240662
1.29925,-0.225718
1.2995,-0.194367
1.29975,-0.19245
1.3,-0.195946
1.30025,-0.193492
1.3005,-0.201837
1.30075,-0.175815
1.301,-0.181888
1.30125,-0.172357
1.3015,-0.209642
1.30175,-0.15893
1.302,-0.139873
1.30225,-0.169046
1.3025,-0.167052
1.30275,-0.192949
1.303,-0.141035
1.30325,-0.205157
1.3035,-1.95E-01
1.30375,-0.228849
1.304,-0.181216
1.30425,-0.258215
1.3045,-0.269053
1.30475,-0.203459
1.305,-0.261887
1.30525,-0.218441
1.3055,-0.290911
1.30575,-0.287386
1.306,-0.252036
1.30625,-0.189569
1.3065,-0.298399
1.30675,-0.226923
1.307,-0.19976
1.30725,-0.230129
1.3075,-0.179834
1.30775,-0.184486
1.308,-0.166837
1.30825,-0.16326
1.3085,-0.143135
1.30875,-0.12947
1.309,-0.12497
1.30925,-0.104251
1.3095,-0.0862656
1.30975,-0.10766
1.31,-0.0659863
1.31025,-0.0562913
1.3105,-0.0736294
1.31075,-0.0234295
1.311,-0.0882646
1.31125,-0.0602527
1.3115,-0.065708
1.31175,-0.0703262
1.312,-0.0796492
1.31225,-0.0631211
1.3125,-0.0315782
1.31275,-0.027949
1.313,-0.0788026
1.31325,-0.0165327
1.3135,-0.0278563
1.31375,-0.0416226
1.314,-0.0432873
1.31425,-0.00646783
1.3145,-0.144954
1.31475,-0.0713932
1.315,-0.0711014
1.31525,-0.131874
1.3155,-0.0494483
1.31575,-0.0444887
1.316,-0.0905889
1.31625,-0.0791216
1.3165,-0.0557799
1.31675,-0.0443945
1.317,-0.0495129
1.31725,-0.0469985
1.3175,-0.0188127
1.31775,-0.0428871
1.318,-0.0397707
1.31825,-0.0462533
1.3185,0.00263197
1.31875,-0.0059563
1.319,-0.037443
1.31925,-0.0180401
1.3195,-0.0466757
1.31975,-0.0328257
1.32,-0.0413319
1.32025,-0.0681336
1.3205,-0.103253
1.32075,-0.0907918
1.321,-0.0581594
1.32125,-0.0959702
1.3215,-0.10025
1.32175,-0.154003
1.322,-0.163543
1.32225,-0.100788
1.3225,-0.155128
1.32275,-0.0662186
1.323,-0.166796
1.32325,-0.150328
1.3235,-0.0716862
1.32375,-0.109106
1.324,-0.0903267
1.32425,-0.0477083
1.3245,-0.0305202
1.32475,-0.0608093
1.325,-0.0148019
1.32525,-0.0137801
1.3255,-0.0103873
1.32575,-0.0167576
1.326,0.0255873
1.32625,0.0162406
1.3265,0.0145277
1.32675,0.0494433
1.327,0.0679815
1.32725,0.00225
1.3275,0.0748947
1.32775,0.0761806
1.328,0.0350272
1.32825,0.0203495
1.3285,0.0557473
1.32875,0.0398888
1.329,0.0696453
1.32925,0.0638358
1.3295,0.0504815
1.32975,0.0715624
1.33,0.0621777
1.33025,0.0539886
1.3305,0.032693
1.33075,0.0808869
1.331,0.0826961
1.33125,0.0542134
1.3315,0.108553
1.33175,0.0553114
1.332,0.0587968
1.33225,0.0627302
1.3325,0.0127552
1.33275,0.06862
1.333,0.0453329
1.33325,0.0387607
1.3335,0.0867735
1.33375,0.131724
1.334,0.0946465
1.33425,0.0765098
1.3345,0.0984236
1.33475,0.0830541
1.335,0.100471
1.33525,0.130337
1.3355,0.104757
1.33575,0.125069
1.336,0.0616015
1.33625,0.0721056
1.3365,0.107791
1.33675,0.0599548
1.337,0.0760348
1.33725,0.0504047
1.3375,0.0486948
1.33775,0.0227806
1.338,0.0379954
1.33825,0.0135219
1.3385,0.00928155
1.33875,0.011137
1.339,-0.0419164
1.33925,-0.020844
1.3395,0.0464528
1.33975,-0.0160638
1.34,-0.0208823
1.34025,-0.064531
1.3405,-0.0390146
1.34075,0.0748003
1.341,0.0272309
1.34125,0.0242155
1.3415,0.0692715
1.34175,0.014321
1.342,0.0613947
1.34225,0.0370829
1.3425,0.113743
1.34275,0.0540578
1.343,0.0683607
1.34325,0.0513692
1.3435,0.0973156
1.34375,0.0773375
1.344,0.155411
1.34425,0.128252
1.3445,0.141461
1.34475,0.125285
1.345,0.130883
1.34525,0.132474
1.3455,0.112131
1.34575,0.119778
1.346,0.116362
1.34625,0.121653
1.3465,0.133317
1.34675,0.152655
1.347,0.0737058
1.34725,0.130481
1.3475,0.177499
1.34775,0.0833771
1.348,0.138211
1.34825,0.0801898
1.3485,0.115851
1.34875,0.104223
1.349,0.11007
1.34925,0.115565
1.3495,0.200371
1.34975,0.207479
1.35,0.189329
1.35025,0.143244
1.3505,0.147986
1.35075,0.167396
1.351,0.183461
1.35125,0.194635
1.3515,0.25335
1.35175,0.217724
1.352,0.185745
1.35225,0.219545
1.3525,0.244727
1.35275,0.153659
1.353,0.176911
1.35325,0.213534
1.3535,0.198841
1.35375,0.181344
1.354,0.156089
1.35425,0.141057
1.3545,0.140057
1.35475,0.135788
1.355,0.125203
1.35525,0.077359
1.3555,0.0825088
1.35575,0.0538218
1.356,0.0711009
1.35625,0.0548382
1.3565,0.0496366
1.35675,0.0693153
1.357,0.0202801
1.35725,0.0791103
1.3575,0.0887635
1.35775,0.0945319
1.358,0.051192
1.35825,0.0792495
1.3585,0.124065
1.35875,0.0673622
1.359,0.128238
1.35925,0.0741037
1.3595,0.162661
1.35975,0.124681
1.36,0.15396
1.36025,0.128357
1.3605,0.216278
1.36075,0.147358
1.361,0.143309
1.36125,0.118924
1.3615,0.15661
1.36175,0.137106
1.362,0.141705
1.36225,0.153828
1.3625,0.145996
1.36275,0.13949
1.363,0.124091
1.36325,0.123361
1.3635,0.154885
1.36375,0.14026
1.364,0.139594
1.36425,0.106501
1.3645,0.14916
1.36475,0.133855
1.365,0.146035
1.36525,0.150388
1.3655,0.154976
1.36575,0.179805
1.366,0.199854
1.36625,0.216565
1.3665,0.201405
1.36675,0.246945
1.367,0.198724
1.36725,0.218963
1.3675,0.287446
1.36775,0.169665
1.368,0.267586
1.36825,0.230989
1.3685,0.265973
1.36875,0.300104
1.369,0.300241
1.36925,0.266337
1.3695,0.199287
1.36975,0.268977
1.37,0.231811
1.37025,0.250517
1.3705,0.193319
1.37075,0.205547
1.371,0.173901
1.37125,0.177307
1.3715,0.176646
1.37175,0.150697
1.372,0.140817
1.37225,0.159682
1.3725,0.161508
1.37275,0.140461
1.373,0.103486
1.37325,0.115864
1.3735,0.0863671
1.37375,0.103114
1.374,0.101551
1.37425,0.139708
1.3745,0.126225
1.37475,0.094264
1.375,0.132863
1.37525,0.130796
1.3755,0.137996
1.37575,0.195377
1.376,0.0986101
1.37625,0.136311
1.3765,0.134123
1.37675,0.115313
1.377,0.164807
1.37725,0.211229
1.3775,0.0737265
1.37775,0.130486
1.378,0.0943099
1.37825,0.196322
1.3785,0.0978937
1.37875,0.10099
1.379,0.125183
1.37925,0.0868052
1.3795,0.0897681
1.37975,0.0941718
1.38,0.0870356
1.38025,0.0749634
1.3805,0.115763
1.38075,0.0713376
1.381,0.141156
1.38125,0.136751
1.3815,0.135987
1.38175,0.122889
1.382,0.129888
1.38225,0.103074
1.3825,0.123288
1.38275,0.142205
1.383,0.16088
1.38325,0.176798
1.3835,0.193931
1.38375,0.177469
1.384,0.180869
1.38425,0.190226
1.3845,0.210748
1.38475,0.181925
1.385,0.193333
1.38525,0.265641
1.3855,0.253636
1.38575,0.276877
1.386,0.187616
1.38625,0.276127
1.3865,0.178057
1.38675,0.259966
1.387,0.173124
1.38725,0.201743
1.3875,0.226856
1.38775,0.186389
1.388,0.175772
1.38825,0.159479
1.3885,0.14926
1.38875,0.136936
1.389,0.119872
1.38925,0.0981247
1.3895,0.127429
1.38975,0.0764974
1.39,0.119106
1.39025,0.128345
1.3905,0.0814807
1.39075,0.0981453
1.391,0.11166
1.39125,0.103808
1.3915,0.102967
1.39175,0.109174
1.392,0.100288
1.39225,0.113206
1.3925,0.0889249
1.39275,0.136968
1.393,0.085706
1.39325,0.151094
1.3935,0.141739
1.39375,0.0789475
1.394,0.170489
1.39425,0.110292
1.3945,0.135521
1.39475,0.0569529
1.395,0.0300227
1.39525,0.0950982
1.3955,0.0899224
1.39575,0.0295156
1.396,0.0718815
1.39625,0.100831
1.3965,0.0235048
1.39675,0.0675008
1.397,0.0430296
1.39725,0.0672812
1.3975,0.0368631
1.39775,0.0943576
1.398,0.0489639
1.39825,0.0269287
1.3985,0.0268056
1.39875,0.0552262
1.399,0.0205853
1.39925,0.0653819
1.3995,0.0684638
1.39975,0.0846543
1.4,0.0930574
1.40025,0.0966893
1.4005,0.117326
1.40075,0.122496
1.401,0.113808
1.40125,0.129849
1.4015,0.165477
1.40175,0.14964
1.402,0.130357
1.40225,0.179268
1.4025,0.0947059
1.40275,0.203491
1.403,0.117919
1.40325,0.11966
1.4035,0.133144
1.40375,0.161378
1.404,0.080648
1.40425,0.0924447
1.4045,0.153599
1.40475,0.0655372
1.405,0.145167
1.40525,0.105689
1.4055,0.0611593
1.40575,0.0334409
1.406,0.0349843
1.40625,0.0966227
1.4065,0.0817
1.40675,0.0785819
1.407,0.0730841
1.40725,0.0813697
1.4075,0.0419315
1.40775,0.0748916
1.408,0.0673422
1.40825,0.0805081
1.4085,0.0619198
1.40875,0.0867074
1.409,0.0654485
1.40925,0.0705489
1.4095,0.080803
1.40975,0.0735038
1.41,0.0530607
1.41025,0.106461
1.4105,0.0345647
1.41075,0.0795333
1.411,0.0876442
1.41125,0.038923
1.4115,0.0438546
1.41175,0.0331533
1.412,-0.0284447
1.41225,0.0119962
1.4125,0.0155016
1.41275,-0.000903061
1.413,-0.0676073
1.41325,-0.0477372
1.4135,0.0212682
1.41375,0.00589181
1.414,-0.0545888
1.41425,-0.0575068
1.4145,-0.100787
1.41475,-0.0494656
1.415,-0.0330363
1.41525,-0.0104673
1.4155,-0.0496887
1.41575,-0.0521008
1.416,-0.047278
1.41625,0.00623246
1.4165,-0.0187159
1.41675,0.000977362
1.417,0.0351073
1.41725,0.0135991
1.4175,0.04561
1.41775,0.065921
1.418,0.0358038
1.41825,0.0669467
1.4185,0.0955769
1.41875,0.109055
1.419,0.0731185
1.41925,0.0970571
1.4195,0.0978625
1.41975,0.0646544
1.42,0.0521371
1.42025,0.0376001
1.4205,0.0331315
1.42075,0.0658366
1.421,0.023084
1.42125,-0.0070238
1.4215,-0.00160374
1.42175,0.0147216
1.422,0.0245114
1.42225,-0.0035284
1.4225,0.0113698
1.42275,0.0325683
1.423,-0.0192771
1.42325,0.0531911
1.4235,-0.0517951
1.42375,0.0111076
1.424,-0.0170172
1.42425,-0.00406453
1.4245,0.00209825
1.42475,-0.0112389
1.425,0.038375
1.42525,0.0322545
1.4255,0.0362494
1.42575,0.0342157
1.426,0.0184899
1.42625,0.038693
1.4265,0.0159362
1.42675,0.011097
1.427,0.0445248
1.42725,-0.00435691
1.4275,0.00100409
1.42775,-0.0105101
1.428,-0.0272215
1.42825,-0.0175684
1.4285,-0.0374704
1.42875,-0.0557311
1.429,-0.0316795
1.42925,-0.0559058
1.4295,-0.0979757
1.42975,-0.0707587
1.43,-0.0457308
1.43025,-0.0724478
1.4305,-0.13734
1.43075,-0.135799
1.431,-0.137693
1.43125,-0.155542
1.4315,-0.0737273
1.43175,-0.113945
1.432,-0.132551
1.43225,-0.106729
1.4325,-0.0691267
1.43275,-0.0999875
1.433,-0.114363
1.43325,-0.118839
1.4335,-0.0481285
1.43375,-0.0589359
1.434,-0.0831019
1.43425,-0.0619698
1.4345,-0.0258921
1.43475,-0.0619826
1.435,-0.0442145
1.43525,-0.0178372
1.4355,-0.0286055
1.43575,-0.01837
1.436,-0.043863
1.43625,0.0119283
1.4365,0.00349494
1.43675,0.00311008
1.437,-0.0334881
1.43725,-0.0324643
1.4375,-0.0373212
1.43775,-0.0400738
1.438,-0.0425157
1.43825,-0.0400842
1.4385,-0.0690151
1.43875,-0.0924536
1.439,-0.0445771
1.43925,0.0171408
1.4395,-0.112641
1.43975,-0.0596958
1.44,-0.0152449
1.44025,-0.0241678
1.4405,-0.0461419
1.44075,-0.0112269
1.441,-0.0430547
1.44125,-0.0657329
1.4415,-0.0353697
1.44175,0.0271151
1.442,0.0177044
1.44225,-0.0221558
1.4425,0.0664624
1.44275,0.00634174
1.443,0.0322258
1.44325,0.0302651
1.4435,0.00408428
1.44375,-0.0168511
1.444,-0.00958738
1.44425,-0.0319244
1.4445,0.00714042
1.44475,-2.22E-02
1.445,-0.0520633
1.44525,-0.0576633
1.4455,-0.0650598
1.44575,-0.0627271
1.446,-0.0729871
1.44625,-0.0942252
1.4465,-0.101302
1.44675,-0.0816625
1.447,-0.121625
1.44725,-0.120903
1.4475,-0.176201
1.44775,-0.151445
1.448,-0.10966
1.44825,-0.0895405
1.4485,-0.171643
1.44875,-0.10258
1.449,-0.18601
1.44925,-0.133738
1.4495,-0.140136
1.44975,-0.15178
1.45,-0.0767467
1.45025,-0.121162
1.4505,-0.164925
1.45075,-0.0674173
1.451,-0.117085
1.45125,-0.0881026
1.4515,-0.071459
1.45175,-0.10758
1.452,-0.0957458
1.45225,-0.10449
1.4525,-0.0596836
1.45275,-0.0786543
1.453,-0.114582
1.45325,-0.0684954
1.4535,-0.0946638
1.45375,-0.075878
1.454,-0.072163
1.45425,-0.0780105
1.4545,-0.0823402
1.45475,-0.0860617
1.455,-0.0644794
1.45525,-0.0677161
1.4555,-0.106089
1.45575,-0.0900867
1.456,-0.105707
1.45625,-0.0605473
1.4565,-0.0841972
1.45675,-0.0316025
1.457,-0.0630648
1.45725,-0.0541352
1.4575,-0.034048
1.45775,-0.016255
1.458,0.0106962
1.45825,-0.0236491
1.4585,-0.0588543
1.45875,0.0236835
1.459,-0.019469
1.45925,-0.0640473
1.4595,0.0420136
1.45975,-0.0634965
1.46,0.0584324
1.46025,0.0528941
1.4605,-0.039116
1.46075,0.0249642
1.461,0.0349712
1.46125,-0.0335507
1.4615,-0.0103405
1.46175,-0.00110842
1.462,-0.0428697
1.46225,-0.0362474
1.4625,-0.0774358
1.46275,-0.0787052
1.463,-0.0878516
1.46325,-0.10369
1.4635,-0.0878041
1.46375,-0.13389
1.464,-0.133703
1.46425,-0.118012
1.4645,-0.113883
1.46475,-0.176682
1.465,-0.130109
1.46525,-0.107271
1.4655,-0.134414
1.46575,-0.128932
1.466,-0.148941
1.46625,-0.167974
1.4665,-0.12553
1.46675,-0.157989
1.467,-0.142507
1.46725,-0.0962475
1.4675,-0.0823431
1.46775,-0.0599469
1.468,-0.0704404
1.46825,-0.120387
1.4685,-0.103717
1.46875,-0.0586129
1.469,-0.154363
1.46925,-0.124062
1.4695,-0.0677042
1.46975,-0.0431676
1.47,-0.115985
1.47025,-0.0668328
1.4705,-0.0652959
1.47075,-0.110949
1.471,-0.0836005
1.47125,-0.0791077
1.4715,-0.124951
1.47175,-0.137091
1.472,-0.100292
1.47225,-0.131585
1.4725,-0.103524
1.47275,-0.126543
1.473,-0.0822897
1.47325,-0.0883016
1.4735,-0.0517972
1.47375,-0.07863
1.474,-0.0892863
1.47425,-0.0854584
1.4745,-0.0392357
1.47475,-0.0251672
1.475,-0.0422168
1.47525,-0.003478
1.4755,-0.0590742
1.47575,-0.0265409
1.476,0.022965
1.47625,-0.0474065
1.4765,0.00112559
1.47675,-0.0140695
1.477,-0.0210755
1.47725,-0.0446717
1.4775,-0.0022754
1.47775,0.0323845
1.478,0.0236436
1.47825,-0.000624028
1.4785,-0.0326204
1.47875,0.00296973
1.479,-0.0350745
1.47925,-0.0312862
1.4795,0.00146363
1.47975,-0.0678402
1.48,-0.0436972
1.48025,-0.0726829
1.4805,-0.0497983
1.48075,-0.09812
1.481,-0.106229
1.48125,-0.085205
1.4815,-0.0733585
1.48175,-0.104879
1.482,-0.0852901
1.48225,-0.0723533
1.4825,-0.101657
1.48275,-0.098262
1.483,-0.10472
1.48325,-0.0881806
1.4835,-0.0607
1.48375,-0.0944818
1.484,-0.0925457
1.48425,-0.0894569
1.4845,-0.0723354
1.48475,-0.0448469
1.485,-0.108208
1.48525,-0.114158
1.4855,-0.0835346
1.48575,-0.0768071
1.486,-0.133665
1.48625,-0.0271711
1.4865,-0.0948227
1.48675,-0.138235
1.487,-0.0513554
1.48725,-1.25E-01
1.4875,-0.0632236
1.48775,-0.0799983
1.488,-0.113751
1.48825,-0.107258
1.4885,-0.151726
1.48875,-0.12272
1.489,-0.0974612
1.48925,-0.120535
1.4895,-0.0768817
1.48975,-0.126107
1.49,-0.131509
1.49025,-0.05434
1.4905,-0.0895924
1.49075,-0.0766315
1.491,-0.0615569
1.49125,-0.0568612
1.4915,-0.0416718
1.49175,-0.0211753
1.492,-0.00366149
1.49225,-0.000135335
1.4925,0.0192774
1.49275,0.0352872
1.493,0.0663109
1.49325,0.0268704
1.4935,-0.00623804
1.49375,0.0355269
1.494,-0.00503698
1.49425,0.047087
1.4945,0.012008
1.49475,0.0218119
1.495,0.0540844
1.49525,0.0461171
1.4955,0.0667318
1.49575,0.0456588
1.496,-0.0310444
1.49625,-0.000354079
1.4965,0.036043
1.49675,-0.0367414
1.497,0.00910754
1.49725,0.011492
1.4975,-0.0125303
1.49775,-0.0477923
1.498,-0.0348729
1.49825,-0.0227627
1.4985,-0.0235706
1.49875,-0.0651932
1.499,-0.0366535
1.49925,-0.0314739
1.4995,-0.0159864
1.49975,-0.0358065
1.5,-0.0294575
1.50025,-0.0245166
1.5005,-0.00909677
1.50075,-0.0173677
1.501,-0.0390383
1.50125,-0.0188396
1.5015,-0.0371305
1.50175,-0.0556142
1.502,4.38E-02
1.50225,-0.0638129
1.5025,-0.0265566
1.50275,-0.0438926
1.503,-0.00558546
1.50325,-0.0782838
1.5035,-0.0134422
1.50375,-0.0879523
1.504,-0.108207
1.50425,-0.0408557
1.5045,-0.105697
1.50475,-0.0606594
1.505,-0.0781458
1.50525,-0.0994017
1.5055,-0.104607
1.50575,-0.0625888
1.506,-0.0984838
1.50625,-0.0835362
1.5065,-0.118574
1.50675,-0.152456
1.507,-0.0836471
1.50725,-0.0432214
1.5075,-0.0790927
1.50775,-0.0476374
1.508,-0.0346636
1.50825,-0.0336831
1.5085,-0.00465772
1.50875,0.00391605
1.509,-0.0108203
1.50925,0.0298783
1.5095,0.0411244
1.50975,0.0170413
1.51,0.0520309
1.51025,0.0727888
1.5105,0.0693925
1.51075,0.0275155
1.511,0.035894
1.51125,0.0604497
1.5115,0.0649071
1.51175,0.0244447
1.512,0.0415606
1.51225,0.0314479
1.5125,0.0461731
1.51275,0.0238558
1.513,0.022681
1.51325,0.0813115
1.5135,0.0593153
1.51375,0.0120144
1.514,-0.0298884
1.51425,0.001326
1.5145,-0.0307003
1.51475,0.0295682
1.515,0.0748426
1.51525,0.000205383
1.5155,-0.00662155
1.51575,-0.0230728
1.516,-0.00126026
1.51625,0.0110311
1.5165,0.0242201
1.51675,0.018008
1.517,0.0548636
1.51725,0.0444243
1.5175,0.0358989
1.51775,0.0457126
1.518,0.0263111
1.51825,0.0261893
1.5185,0.0466317
1.51875,-0.00527226
1.519,0.0578151
1.51925,0.0326931
1.5195,0.0119531
1.51975,0.0450477
1.52,0.000724014
1.52025,0.00279436
1.5205,0.00231315
1.52075,0.00780775
1.521,-0.00598242
1.52125,-0.0343443
1.5215,-0.0655581
1.52175,-0.00270354
1.522,-0.00935162
1.52225,-0.0306055
1.5225,-0.0137635
1.52275,-0.0795509
1.523,-0.0559625
1.52325,-0.0167319
1.5235,-0.0702617
1.52375,-0.0209214
1.524,0.00344752
1.52425,-0.0575246
1.5245,-0.0267075
1.52475,-0.0557545
1.525,-0.0443901
1.52525,-0.0387151
1.5255,-0.00932585
1.52575,-0.0184527
1.526,0.0401465
1.52625,0.0195426
1.5265,0.0403003
1.52675,0.07567
1.527,0.0261435
1.52725,0.068988
1.5275,0.0579639
1.52775,0.0712517
1.528,0.0207573
1.52825,0.027719
1.5285,0.0845029
1.52875,0.0530885
1.529,0.0799402
1.52925,0.0803443
1.5295,0.0560454
1.52975,0.0577112
1.53,0.0507145
1.53025,0.0524209
1.5305,0.00170424
1.53075,-0.0305208
1.531,0.10152
1.53125,-0.0383146
1.5315,-0.0042457
1.53175,0.044592
1.532,0.0687125
1.53225,0.0679483
1.5325,0.0770602
1.53275,0.059698
1.533,0.0845497
1.53325,0.0966532
1.5335,0.0468848
1.53375,9.90E-02
1.534,0.0709388
1.53425,0.0775036
1.5345,0.11027
1.53475,0.115468
1.535,0.0550306
1.53525,0.0509618
1.5355,0.113935
1.53575,0.0307603
1.536,0.0761782
1.53625,0.0445931
1.5365,0.0647557
1.53675,0.0356294
1.537,0.0258875
1.53725,0.0236512
1.5375,0.024336
1.53775,-0.0151469
1.538,-0.00987529
1.53825,-0.0605069
1.5385,-0.0289226
1.53875,-0.0194366
1.539,-0.0657793
1.53925,0.000647066
1.5395,-0.0412856
1.53975,-0.0912293
1.54,-0.0272793
1.54025,-0.0791726
1.5405,-0.0772555
1.54075,-0.0419402
1.541,0.0254413
1.54125,-0.0438927
1.5415,-0.00897973
1.54175,0.00442614
1.542,-0.0131109
1.54225,0.010078
1.5425,0.00219755
1.54275,-0.0350712
1.543,0.0207652
1.54325,0.00339211
1.5435,0.0224338
1.54375,0.0420278
1.544,0.00623626
1.54425,0.0186179
1.5445,0.0340839
1.54475,0.0711232
1.545,0.0489604
1.54525,0.0493096
1.5455,0.050767
1.54575,0.0409546
1.546,0.0390324
1.54625,0.0337374
1.5465,0.0331861
1.54675,0.0281456
1.547,0.0335163
1.54725,0.0166305
1.5475,0.0494344
1.54775,0.03721
1.548,0.0941847
1.54825,0.0498023
1.5485,0.0816042
1.54875,0.100804
1.549,0.0211379
1.54925,0.0928915
1.5495,0.0330436
1.54975,0.114488
1.55,0.0436304
1.55025,0.117612
1.5505,0.0911735
1.55075,0.105733
1.551,0.151815
1.55125,0.118403
1.5515,0.114977
1.55175,0.126223
1.552,0.0380101
1.55225,0.115669
1.5525,0.0974602
1.55275,0.0826908
1.553,0.10111
1.55325,0.0487927
1.5535,0.100169
1.55375,0.0642195
1.554,0.0406334
1.55425,0.0383031
1.5545,0.0259119
1.55475,-0.0041964
1.555,0.0127117
1.55525,0.00367619
1.5555,0.0090354
1.55575,-0.0365801
1.556,0.0129969
1.55625,-0.0610097
1.5565,-0.0725772
1.55675,-0.0243879
1.557,-0.0535717
1.55725,-0.0332208
1.5575,0.0040636
1.55775,-0.0634205
1.558,-0.0577009
1.55825,0.0277629
1.5585,0.024317
1.55875,0.0115703
1.559,-0.00146803
1.55925,0.0508784
1.5595,0.0353363
1.55975,0.00171068
1.56,-0.0162758
1.56025,0.0525522
1.5605,0.0362692
1.56075,0.00380825
1.561,-0.00849114
1.56125,0.0176799
1.5615,0.0695865
1.56175,0.0176694
1.562,0.0060325
1.56225,-0.000982496
1.5625,0.0274565
1.56275,-0.00351283
1.563,0.0096593
1.56325,0.00795779
1.5635,-0.013593
1.56375,-0.0159147
1.564,-0.00163282
1.56425,0.0209128
1.5645,0.00729375
1.56475,0.0248782
1.565,-0.0217612
1.56525,-0.00381315
1.5655,0.00262781
1.56575,0.0147941
1.566,0.0962754
1.56625,0.0415317
1.5665,0.101587
1.56675,0.0488203
1.567,0.0713323
1.56725,0.0788031
1.5675,0.0572194
1.56775,0.135869
1.568,0.0556414
1.56825,0.105761
1.5685,0.0523897
1.56875,0.13997
1.569,0.162023
1.56925,0.0928758
1.5695,0.110724
1.56975,0.0910501
1.57,0.0824486
1.57025,0.0453568
1.5705,0.0738512
1.57075,0.0720688
1.571,0.0274272
1.57125,0.0402323
1.5715,0.0564482
1.57175,-0.0152709
1.572,-0.0182037
1.57225,-0.00802953
1.5725,-0.016989
1.57275,-0.0112798
1.573,0.0181518
1.57325,-0.00307913
1.5735,-0.0275599
1.57375,-0.0448199
1.574,-0.0256341
1.57425,-0.0461881
1.5745,-0.0347085
1.57475,-0.0127639
1.575,-0.033242
1.57525,-0.010323
1.5755,-0.00833733
1.57575,-0.00686327
1.576,0.0129436
1.57625,0.0326049
1.5765,-0.0109242
1.57675,-0.0279956
1.577,0.0567654
1.57725,0.032137
1.5775,-0.062689
1.57775,-0.0433867
1.578,0.0100035
1.57825,0.0288452
1.5785,0.0247068
1.57875,-0.0142968
1.579,-0.0278509
1.57925,-0.0568186
1.5795,0.0075164
1.57975,-0.0118446
1.58,-0.0137665
1.58025,-0.0204123
1.5805,-0.0759671
1.58075,-0.0470058
1.581,-0.006383
1.58125,-0.0324083
1.5815,0.00270304
1.58175,-0.0249641
1.582,-4.29E-03
1.58225,0.00455688
1.5825,0.0175138
1.58275,0.0208899
1.583,0.0151156
1.58325,0.0622858
1.5835,0.0288392
1.58375,0.031226
1.584,0.0936727
1.58425,0.0358525
1.5845,0.116603
1.58475,0.108268
1.585,0.0839934
1.58525,0.137951
1.5855,0.0435575
1.58575,0.0602492
1.586,0.166447
1.58625,0.107614
1.5865,0.0782367
1.58675,0.0655091
1.587,0.0955764
1.58725,0.107611
1.5875,0.0177021
1.58775,0.0433315
1.588,0.0237395
1.58825,0.0372082
1.5885,-0.00238062
1.58875,-0.00318706
1.589,0.036161
1.58925,0.00388977
1.5895,0.0307962
1.58975,0.00892395
1.59,0.00622899
1.59025,-0.0209128
1.5905,-0.00827047
1.59075,-0.0302679
1.591,-0.0185848
1.59125,0.00893911
1.5915,-0.00654755
1.59175,0.00753887
1.592,0.00879819
1.59225,0.00963289
1.5925,-0.00890795
1.59275,0.0309411
1.593,0.025693
1.59325,-0.0172921
1.5935,0.0218335
1.59375,0.0477961
1.594,-0.00454237
1.59425,-0.0304777
1.5945,-0.0624859
1.59475,0.0155882
1.595,-0.00255278
1.59525,-0.0163469
1.5955,-0.00521248
1.59575,-0.0124729
1.596,-0.074144
1.59625,-0.0374981
1.5965,-0.00826539
1.59675,-0.0602048
1.597,-0.0149003
1.59725,-0.0478675
1.5975,-0.0627903
1.59775,-0.0859611
1.598,-0.032931
1.59825,-0.0796502
1.5985,-0.0430329
1.59875,-0.0880219
1.599,-0.0713815
1.59925,-0.0130636
1.5995,-0.0268561
1.59975,-0.00268321
1.6,0.00360655
1.60025,0.0151924
1.6005,0.0164241
1.60075,0.0384842
1.601,0.0457664
1.60125,0.0626056
1.6015,0.0279741
1.60175,0.0743335
1.602,0.129865
1.60225,0.0747472
1.6025,0.0414656
1.60275,0.102335
1.603,0.0868367
1.60325,0.0426866
1.6035,0.095233
1.60375,0.0991586
1.604,0.0648888
1.60425,0.0877683
1.6045,0.0869122
1.60475,0.0454078
1.605,-0.0272102
1.60525,0.0173135
1.6055,-0.00459646
1.60575,0.00263042
1.606,0.00891843
1.60625,-0.0119808
1.6065,-0.0292079
1.60675,0.0312163
1.607,0.0376607
1.60725,-0.00685517
1.6075,-0.0373612
1.60775,0.00623117
1.608,0.00536822
1.60825,0.00109948
1.6085,0.00812392
1.60875,0.0204315
1.609,0.0146234
1.60925,0.0135799
1.6095,0.00928463
1.60975,0.0198327
1.61,0.0604634
1.61025,0.0147777
1.6105,0.0489877
1.61075,-0.0346061
1.611,-0.0260581
1.61125,0.00897706
1.6115,-0.0589746
1.61175,-0.000402618
1.612,-0.0588873
1.61225,-0.0115092
1.6125,-0.0738161
1.61275,-0.0288451
1.613,-0.0303753
1.61325,-0.116405
1.6135,-0.0670735
1.61375,-0.0947136
1.614,-0.0447849
1.61425,-0.0966598
1.6145,-0.106228
1.61475,-0.0955637
1.615,-0.100071
1.61525,-0.0806147
1.6155,-0.0858896
1.61575,-0.0696903
1.616,-0.0563577
1.61625,-0.0626837
1.6165,-0.0555368
1.61675,-0.0251534
1.617,-0.00315585
1.61725,0.00400966
1.6175,0.00576618
1.61775,-0.0151676
1.618,0.0489824
1.61825,0.0392996
1.6185,0.059738
1.61875,0.0258096
1.619,0.0169125
1.61925,0.028175
1.6195,0.030485
1.61975,0.0580051
1.62,0.0737397
1.62025,0.0612686
1.6205,0.0631769
1.62075,-0.000927098
1.621,0.0134689
1.62125,-0.0189995
1.6215,0.0259258
1.62175,0.0549282
1.622,0.0390594
1.62225,0.0208063
1.6225,0.00894174
1.62275,-0.0241147
1.623,-0.0141342
1.62325,-0.0268359
1.6235,-0.0428713
1.62375,0.0169903
1.624,0.0113701
1.62425,-0.0197632
1.6245,0.000303512
1.62475,-0.00369154
1.625,0.0529068
1.62525,0.054209
1.6255,0.0416281
1.62575,0.00379385
1.626,0.02699
1.62625,0.028259
1.6265,0.0205844
1.62675,0.0599803
1.627,0.00577554
1.62725,0.0610113
1.6275,-0.00660778
1.62775,0.0266791
1.628,0.00827789
1.62825,-0.0109678
1.6285,-0.0132553
1.62875,-0.0439101
1.629,-0.0262004
1.62925,-0.0270634
1.6295,-0.0557651
1.62975,-0.0251874
1.63,-0.0517932
1.63025,-0.0986115
1.6305,-0.040834
1.63075,-0.0560272
1.631,-0.0865175
1.63125,-0.0803861
1.6315,-0.0824942
1.63175,-0.0792207
1.632,-0.0801549
1.63225,-0.0639718
1.6325,-0.116891
1.63275,-0.10039
1.633,-0.108196
1.63325,-0.0287183
1.6335,-0.0859172
1.63375,-0.0670124
1.634,-0.044729
1.63425,0.0104586
1.6345,-0.0415069
1.63475,-0.00348248
1.635,0.0209947
1.63525,0.000807808
1.6355,0.00284118
1.63575,0.0563068
1.636,0.0108233
1.63625,0.0144839
1.6365,0.0217994
1.63675,0.00034422
1.637,0.00929383
1.63725,0.00668274
1.6375,0.00644879
1.63775,0.0177623
1.638,0.0141081
1.63825,-0.027648
1.6385,0.00579308
1.63875,0.0260337
1.639,-0.00634404
1.63925,0.0477237
1.6395,-0.0290273
1.63975,-0.0163158
1.64,-0.0427915
1.64025,-0.0276493
1.6405,-0.0328207
1.64075,-0.0215383
1.641,0.012983
1.64125,0.00180253
1.6415,-0.000996808
1.64175,0.0448194
1.642,0.0103546
1.64225,0.0588597
1.6425,0.081918
1.64275,0.0641325
1.643,0.0555932
1.64325,0.0438704
1.6435,0.0249736
1.64375,0.069161
1.644,0.0389262
1.64425,0.0552466
1.6445,0.0286516
1.64475,0.00264459
1.645,0.0417793
1.64525,0.00327292
1.6455,-0.00330689
1.64575,-0.00871865
1.646,-0.0143521
1.64625,-0.0301146
1.6465,-0.0531327
1.64675,-0.0290972
1.647,-0.0232733
1.64725,-0.0649804
1.6475,-0.0785904
1.64775,-0.115685
1.648,-0.0758564
1.64825,-0.145583
1.6485,-0.102257
1.64875,-0.112404
1.649,-0.0426535
1.64925,-0.0545516
1.6495,-0.0973252
1.64975,-0.0884745
1.65,-0.0452519
1.65025,-0.0229968
1.6505,-0.091582
1.65075,-0.0150261
1.651,-0.0738568
1.65125,-0.0653091
1.6515,-0.0365322
1.65175,0.00618361
1.652,-0.0506301
1.65225,0.011916
1.6525,-0.0548767
1.65275,0.000312653
1.653,0.0236793
1.65325,0.00486193
1.6535,-0.00389472
1.65375,0.00936628
1.654,-0.00661942
1.65425,-2.18E-02
1.6545,-0.0198497
1.65475,-0.023002
1.655,-0.0467827
1.65525,-0.0147958
1.6555,-0.00742298
1.65575,-0.0263469
1.656,0.0217192
1.65625,0.0159099
1.6565,0.00232585
1.65675,-0.0667709
1.657,0.00405553
1.65725,0.0677376
1.6575,-0.0197433
1.65775,-0.00162592
1.658,0.0792294
1.65825,0.0322803
1.6585,0.0753913
1.65875,0.023572
1.659,0.05239
1.65925,0.0980929
1.6595,0.018001
1.65975,0.0962474
1.66,3.57E-02
1.66025,0.0832856
1.6605,0.0917116
1.66075,0.0864241
1.661,0.103175
1.66125,0.0751988
1.6615,0.0845632
1.66175,0.050758
1.662,0.0389785
1.66225,0.0332441
1.6625,0.0106233
1.66275,-0.0126051
1.663,-0.00849344
1.66325,-0.0265202
1.6635,-0.0106057
1.66375,-0.034263
1.664,-0.0384361
1.66425,-0.0828371
1.6645,-0.03789
1.66475,-0.0472778
1.665,-0.035897
1.66525,-0.0109212
1.6655,-0.0969949
1.66575,-0.0876748
1.666,-0.0822465
1.66625,-0.0758452
1.6665,-0.0324507
1.66675,-0.0304548
1.667,-0.0697575
1.66725,0.0017459
1.6675,0.0245737
1.66775,-0.0454207
1.668,-0.0591584
1.66825,-0.00824564
1.6685,-0.0611171
1.66875,-0.0504071
1.669,-0.0805562
1.66925,-0.068919
1.6695,-0.0384287
1.66975,-0.0523598
1.67,-0.0492273
1.67025,-0.0424573
1.6705,-0.0338599
1.67075,-0.0436222
1.671,-0.0250879
1.67125,-0.0501185
1.6715,-0.0552498
1.67175,-0.0434904
1.672,-0.050031
1.67225,-0.0258954
1.6725,-0.0772943
1.67275,-0.0334932
1.673,-0.049164
1.67325,-0.0435233
1.6735,-0.0209674
1.67375,-0.0129856
1.674,0.0178679
1.67425,0.0252414
1.6745,0.0143403
1.67475,0.0126444
1.675,0.0565679
1.67525,0.0077012
1.6755,0.0759883
1.67575,0.0889809
1.676,0.0754983
1.67625,0.0734719
1.6765,0.0747319
1.67675,0.0797671
1.677,0.072526
1.67725,0.133008
1.6775,0.0813616
1.67775,0.054055
1.678,0.0468853
1.67825,0.118747
1.6785,0.0644897
1.67875,0.088033
1.679,0.0331898
1.67925,0.0526672
1.6795,-0.00920097
1.67975,-0.0146286
1.68,0.0298787
1.68025,0.0075749
1.6805,0.00564408
1.68075,-0.0235782
1.681,-0.0464125
1.68125,-0.0115684
1.6815,-0.0126259
1.68175,-0.0697639
1.682,-0.0491216
1.68225,-0.0400054
1.6825,-0.063089
1.68275,-0.0564218
1.683,-0.0263841
1.68325,-0.0282044
1.6835,-0.013325
1.68375,-0.0342449
1.684,-0.0188945
1.68425,-0.0226063
1.6845,-0.0205138
1.68475,-0.0184552
1.685,-0.0637224
1.68525,-0.0571894
1.6855,0.062938
1.68575,-0.0418174
1.686,-0.0612377
1.68625,0.00877346
1.6865,-0.010929
1.68675,-0.0362433
1.687,0.00767743
1.68725,-0.0431685
1.6875,-0.0861391
1.68775,-0.0738832
1.688,-0.0481377
1.68825,-0.108457
1.6885,-0.0723625
1.68875,-0.106754
1.689,-0.0440785
1.68925,-0.0657996
1.6895,-0.0668422
1.68975,-0.0215984
1.69,-0.0625376
1.69025,-0.0379172
1.6905,-0.0330962
1.69075,-0.0331841
1.691,-0.016587
1.69125,-0.0124426
1.6915,0.0133691
1.69175,0.0287417
1.692,0.0120354
1.69225,0.0480149
1.6925,0.041393
1.69275,0.0414762
1.693,0.0651991
1.69325,0.0326302
1.6935,0.0675142
1.69375,0.10282
1.694,0.0756599
1.69425,0.100411
1.6945,0.0780518
1.69475,0.0609738
1.695,0.016327
1.69525,0.0900082
1.6955,0.0831615
1.69575,0.0998728
1.696,0.048559
1.69625,0.0331324
1.6965,0.0741723
1.69675,0.0176704
1.697,0.0649814
1.69725,0.0397629
1.6975,0.0093403
1.69775,0.0380126
1.698,0.0171033
1.69825,-0.0334465
1.6985,-4.18E-02
1.69875,0.0256442
1.699,0.00668489
1.69925,0.0221615
1.6995,-0.00546517
1.69975,-0.0104679
1.7,0.00139535
1.70025,0.0121696
1.7005,0.0244611
1.70075,0.0219986
1.701,0.00957019
1.70125,-0.0227258
1.7015,-0.0205853
1.70175,-0.00395645
1.702,0.0135741
1.70225,0.0390202
1.7025,0.0221363
1.70275,0.0242726
1.703,0.00897161
1.70325,-0.0540492
1.7035,-0.0378892
1.70375,-0.0179626
1.704,0.00222426
1.70425,-0.00465643
1.7045,-0.0730231
1.70475,-0.0962045
1.705,-0.0606574
1.70525,-0.0485254
1.7055,-0.129654
1.70575,-0.119514
1.706,-0.0812712
1.70625,-0.03596
1.7065,-0.109283
1.70675,-0.0796166
1.707,-0.0692581
1.70725,-0.0666984
1.7075,-0.0467293
1.70775,-0.0393195
1.708,-0.0315936
1.70825,-0.0232025
1.7085,-0.00832067
1.70875,9.81E-03
1.709,0.0285456
1.70925,0.0332548
1.7095,0.0130715
1.70975,0.0705425
1.71,0.080142
1.71025,0.0352474
1.7105,0.0509446
1.71075,0.103499
1.711,0.0434003
1.71125,0.0443562
1.7115,0.0658164
1.71175,0.091668
1.712,0.0413747
1.71225,0.0768666
1.7125,0.0533256
1.71275,0.0933779
1.713,0.0421477
1.71325,0.0374628
1.7135,-0.00870022
1.71375,0.0411767
1.714,0.0121599
1.71425,-0.00889757
1.7145,-0.0490115
1.71475,4.23E-02
1.715,0.0294366
1.71525,0.0692397
1.7155,-0.0093291
1.71575,0.0462775
1.716,0.0402274
1.71625,0.0175284
1.7165,0.0306515
1.71675,0.0241647
1.717,0.015136
1.71725,0.0322527
1.7175,0.0476485
1.71775,0.0241949
1.718,0.0529715
1.71825,0.0159903
1.7185,0.0504522
1.71875,0.00381484
1.719,0.0106691
1.71925,-0.0212195
1.7195,0.00400535
1.71975,-0.0198112
1.72,-0.016435
1.72025,-0.0158403
1.7205,0.00204947
1.72075,-0.0355979
1.721,-0.00962486
1.72125,-0.0354634
1.7215,-0.0595932
1.72175,-0.0407426
1.722,-0.106792
1.72225,-0.0784651
1.7225,-1.49E-01
1.72275,-0.0225147
1.723,-0.0722519
1.72325,-0.124036
1.7235,-0.103319
1.72375,-0.136815
1.724,-0.0572596
1.72425,-0.0828725
1.7245,-0.0613531
1.72475,-0.0558537
1.725,-0.0166617
1.72525,-0.0426689
1.7255,-0.0114262
1.72575,0.00654683
1.726,0.0239196
1.72625,-0.00812885
1.7265,0.0428512
1.72675,0.0606097
1.727,0.0660475
1.72725,0.0770587
1.7275,0.0639873
1.72775,0.0789608
1.728,0.026021
1.72825,0.0462315
1.7285,0.0368838
1.72875,0.0453639
1.729,0.0506315
1.72925,0.0653602
1.7295,0.0426929
1.72975,0.0254817
1.73,0.0217916
1.73025,-0.016821
1.7305,-0.0206167
1.73075,0.0307468
1.731,0.00308524
1.73125,0.00322384
1.7315,0.0412562
1.73175,-0.0189794
1.732,0.0360937
1.73225,-0.0279113
1.7325,-0.0130261
1.73275,0.0504691
1.733,0.0373291
1.73325,0.0401312
1.7335,0.0391031
1.73375,0.0514451
1.734,0.087788
1.73425,0.0593049
1.7345,0.0719808
1.73475,0.0588388
1.735,0.0481545
1.73525,0.0247795
1.7355,0.101285
1.73575,0.0600262
1.736,0.00420032
1.73625,0.0282111
1.7365,0.0310454
1.73675,0.0193131
1.737,-0.00405407
1.73725,-0.00343028
1.7375,-0.00418457
1.73775,-0.0169129
1.738,-0.0275848
1.73825,-0.0694564
1.7385,-0.056185
1.73875,-0.0939556
1.739,-0.11787
1.73925,-0.0274033
1.7395,-0.0960149
1.73975,-0.0249361
1.74,-0.0804873
1.74025,-0.0538377
1.7405,-0.0462862
1.74075,-0.0705103
1.741,-0.0199242
1.74125,-0.051565
1.7415,-0.0271499
1.74175,-0.0257502
1.742,-0.0133135
1.74225,-0.00425552
1.7425,-0.0724756
1.74275,-0.0362369
1.743,0.0291992
1.74325,0.0326716
1.7435,0.00894415
1.74375,-0.00548117
1.744,0.037605
1.74425,0.0194309
1.7445,0.0202046
1.74475,-0.0138139
1.745,0.0353029
1.74525,0.0182547
1.7455,0.0094807
1.74575,0.00768586
1.746,0.0052785
1.74625,0.00625177
1.7465,0.00245366
1.74675,-3.99E-03
1.747,0.0213685
1.74725,-0.014372
1.7475,0.0365674
1.74775,0.00957288
1.748,-0.00957213
1.74825,0.0177644
1.7485,-0.0282777
1.74875,-0.00439133
1.749,0.0568069
1.74925,0.00866194
1.7495,0.0723237
1.74975,0.0833303
1.75,0.00768799
1.75025,0.0211891
1.7505,0.111847
1.75075,0.0158235
1.751,0.0799073
1.75125,0.0397689
1.7515,0.0646621
1.75175,0.0737546
1.752,0.0863594
1.75225,0.0334898
1.7525,0.0976805
1.75275,0.0470805
1.753,0.102365
1.75325,0.0314431
1.7535,0.0503536
1.75375,0.0227938
1.754,0.0163334
1.75425,0.00291644
1.7545,-0.00375752
1.75475,-0.0154177
1.755,-0.0494836
1.75525,-0.0329562
1.7555,-0.0428882
1.75575,-0.060818
1.756,-0.0230605
1.75625,-0.0950784
1.7565,-0.0434873
1.75675,-0.0328566
1.757,-0.0451205
1.75725,-0.0427288
1.7575,-2.41E-02
1.75775,-0.0627991
1.758,-0.0311241
1.75825,-0.0891462
1.7585,-0.0606537
1.75875,-0.0332087
1.759,-0.0321662
1.75925,-0.00995494
1.7595,-0.00409475
1.75975,0.00466045
1.76,-0.0179428
1.76025,0.0136418
1.7605,0.0251892
1.76075,0.0245681
1.761,-0.0116022
1.76125,-0.0316859
1.7615,-0.0371227
1.76175,-0.0232535
1.762,0.00732921
1.76225,-0.0174139
1.7625,-0.0336344
1.76275,-0.0196766
1.763,-0.0390041
1.76325,-0.0067156
1.7635,-0.0459333
1.76375,-0.00179031
1.764,-0.0404483
1.76425,-0.0511839
1.7645,0.00962781
1.76475,-0.0102447
1.765,0.0206825
1.76525,-0.0203605
1.7655,0.0103276
1.76575,0.0592928
1.766,-0.00213966
1.76625,0.072336
1.7665,0.0473827
1.76675,0.0584326
1.767,0.0297065
1.76725,0.0869252
1.7675,0.105667
1.76775,0.0796459
1.768,0.0690885
1.76825,0.126521
1.7685,0.0660602
1.76875,0.0351146
1.769,0.0418966
1.76925,0.0874536
1.7695,0.147678
1.76975,0.125086
1.77,0.0650437
1.77025,0.0730038
1.7705,0.0383794
1.77075,0.0145702
1.771,0.0460445
1.77125,0.0178133
1.7715,0.00745616
1.77175,0.00167713
1.772,-0.0141227
1.77225,-0.0144471
1.7725,-0.0040357
1.77275,-0.0568404
1.773,-0.0083476
1.77325,-0.0449964
1.7735,-0.0211467
1.77375,-0.0375814
1.774,-0.017299
1.77425,-0.0807318
1.7745,-0.0454073
1.77475,-0.014295
1.775,-0.0453742
1.77525,-0.00124424
1.7755,0.0120239
1.77575,-0.0725403
1.776,-0.00515694
1.77625,0.00573867
1.7765,-0.0539076
1.77675,-0.0140731
1.777,0.0113551
1.77725,-0.0656634
1.7775,0.0357437
1.77775,0.00769011
1.778,0.0075597
1.77825,-0.0259642
1.7785,-0.0209927
1.77875,0.00766756
1.779,-0.000114107
1.77925,-0.0619988
1.7795,-0.0635647
1.77975,-0.0630973
1.78,-0.0379051
1.78025,-0.070492
1.7805,-0.0609128
1.78075,-0.0629821
1.781,-0.0555853
1.78125,-0.0456674
1.7815,-0.0131812
1.78175,-0.0238683
1.782,-0.0256491
1.78225,-0.0224535
1.7825,-0.0162038
1.78275,-0.000320448
1.783,0.0078052
1.78325,0.00707516
1.7835,0.00494542
1.78375,0.0325355
1.784,0.0363333
1.78425,0.0328728
1.7845,0.0585117
1.78475,0.0922709
1.785,0.0702713
1.78525,0.0733057
1.7855,0.0525926
1.78575,0.107178
1.786,0.140057
1.78625,0.0904331
1.7865,0.0934355
1.78675,0.0575977
1.787,0.0875634
1.78725,0.0716426
1.7875,0.0145319
1.78775,0.0605016
1.788,0.0702958
1.78825,-0.0109038
1.7885,0.0583117
1.78875,0.039126
1.789,0.00401922
1.78925,-0.0333108
1.7895,0.0196699
1.78975,-0.0671597
1.79,-0.0117404
1.79025,-0.00619619
1.7905,-0.0461322
1.79075,-0.039325
1.791,-0.0326222
1.79125,-0.025754
1.7915,-0.0180172
1.79175,-0.00729819
1.792,-0.013521
1.79225,0.0166367
1.7925,-0.0101003
1.79275,0.0188075
1.793,-0.0161902
1.79325,0.0220044
1.7935,-0.04341
1.79375,-0.059367
1.794,0.0433531
1.79425,0.00844267
1.7945,-0.0739008
1.79475,-0.00680626
1.795,-0.0730233
1.79525,-0.010798
1.7955,-0.0153762
1.79575,-0.0448067
1.796,-0.0818536
1.79625,-0.0484815
1.7965,-0.121742
1.79675,-0.0745545
1.797,-0.115324
1.79725,-0.0219481
1.7975,-0.0678011
1.79775,-0.0572293
1.798,-0.0681882
1.79825,-0.0964881
1.7985,-0.0356694
1.79875,-0.0519404
1.799,-0.0354677
1.79925,-0.00803273
1.7995,-0.0347924
1.79975,-0.00358021
1.8,-0.000685857
1.80025,0.013572
1.8005,0.0144502
1.80075,0.0210152
1.801,0.031744
1.80125,0.030191
1.8015,0.094049
1.80175,0.0365859
1.802,0.0842136
1.80225,0.0661785
1.8025,0.0884677
1.80275,0.12359
1.803,0.102668
1.80325,0.0384101
1.8035,0.0558181
1.80375,0.0182567
1.804,0.0577738
1.80425,0.0662036
1.8045,0.0891391
1.80475,0.021058
1.805,0.0348461
1.80525,0.00460872
1.8055,-0.0444606
1.80575,0.0290696
1.806,1.32E-02
1.80625,-0.00496704
1.8065,-0.0368825
1.80675,0.0391866
1.807,0.0119748
1.80725,-0.0164411
1.8075,0.00313231
1.80775,4.16E-02
1.808,-0.0026517
1.80825,0.000108334
1.8085,0.0147252
1.80875,0.02112
1.809,0.0231746
1.80925,0.0021628
1.8095,0.0334792
1.80975,0.0272441
1.81,-0.0102223
1.81025,-0.0307262
1.8105,-9.00E-03
1.81075,-0.0218712
1.811,0.00209155
1.81125,-0.0195657
1.8115,0.0303515
1.81175,0.0100552
1.812,-0.0330378
1.81225,-0.0720631
1.8125,-0.062091
1.81275,-0.0430285
1.813,-0.0795505
1.81325,-0.055193
1.8135,-0.11376
1.81375,-0.080226
1.814,-0.0323422
1.81425,-0.0968482
1.8145,-0.112657
1.81475,-0.0447144
1.815,-0.127386
1.81525,-0.0543838
1.8155,-0.0353961
1.81575,-0.0343395
1.816,-0.0112744
1.81625,-0.0650618
1.8165,-0.0381423
1.81675,-0.00488806
1.817,-0.0121594
1.81725,0.00740664
1.8175,0.00556034
1.81775,0.0289604
1.818,0.0149158
1.81825,0.034447
1.8185,0.0771865
1.81875,0.0771845
1.819,0.060053
1.81925,0.0386718
1.8195,0.0575677
1.81975,0.0371077
1.82,0.0564457
1.82025,0.0356336
1.8205,0.034876
1.82075,0.0133404
1.821,0.0538402
1.82125,0.0333047
1.8215,0.0167086
1.82175,0.0613759
1.822,-0.0237224
1.82225,-0.0145283
1.8225,-0.0231606
1.82275,0.0445985
1.823,0.0271333
1.82325,0.0289467
1.8235,-0.00142745
1.82375,0.0324254
1.824,-0.0425411
1.82425,-0.0278685
1.8245,0.0186467
1.82475,0.0319551
1.825,0.0656995
1.82525,0.0426921
1.8255,0.0247262
1.82575,0.0274965
1.826,0.0501723
1.82625,0.0424652
1.8265,0.0839813
1.82675,0.043398
1.827,0.0141483
1.82725,0.00734961
1.8275,0.0447184
1.82775,0.0305398
1.828,0.00694537
1.82825,-0.00333771
1.8285,0.0196432
1.82875,-0.0284399
1.829,0.00311366
1.82925,-0.036703
1.8295,-0.0553462
1.82975,-0.0442594
1.83,-0.0519786
1.83025,-0.0478229
1.8305,-0.0794668
1.83075,-0.0872803
1.831,-0.112792
1.83125,-0.124384
1.8315,-8.88E-02
1.83175,-0.0636327
1.832,-0.137714
1.83225,-0.0582412
1.8325,-0.0488151
1.83275,-0.0579571
1.833,-0.0443366
1.83325,-0.00478211
1.8335,-0.0224396
1.83375,-0.0198748
1.834,-0.0483942
1.83425,0.0407426
1.8345,0.0260023
1.83475,0.039426
1.835,-0.000153106
1.83525,0.00595151
1.8355,-0.00133353
1.83575,0.0124125
1.836,0.0113636
1.83625,0.0059855
1.8365,0.00415772
1.83675,0.00942486
1.837,0.0293905
1.83725,0.0181248
1.8375,0.0204995
1.83775,0.0375782
1.838,-0.0192406
1.83825,0.0512195
1.8385,-0.0219075
1.83875,0.0162268
1.839,-0.0320328
1.83925,-0.009129
1.8395,0.077142
1.83975,-0.00378789
1.84,0.0310358
1.84025,-0.0083437
1.8405,0.0118113
1.84075,0.00611398
1.841,-0.00329141
1.84125,0.0651435
1.8415,0.0277549
1.84175,0.0577261
1.842,0.0993414
1.84225,0.103067
1.8425,0.0290785
1.84275,0.0954952
1.843,0.0398688
1.84325,0.0334037
1.8435,0.0389251
1.84375,0.0792126
1.844,0.0768014
1.84425,0.0642687
1.8445,0.0186083
1.84475,0.0107351
1.845,0.0147872
1.84525,0.0109916
1.8455,0.00324062
1.84575,-0.00478603
1.846,-0.00723044
1.84625,-0.0291857
1.8465,-0.0182683
1.84675,-0.0381656
1.847,-0.0722063
1.84725,-0.0401641
1.8475,-0.0943044
1.84775,-0.123492
1.848,-0.0624395
1.84825,-0.0869724
1.8485,-0.0648526
1.84875,-0.0553582
1.849,-0.0800632
1.84925,-0.0839366
1.8495,-0.0498279
1.84975,-0.0854596
1.85,-0.0362719
1.85025,-0.0148601
1.8505,-0.0667559
1.85075,-0.0644042
1.851,-0.012946
1.85125,0.0365763
1.8515,-0.0602683
1.85175,-0.00541059
1.852,-0.0448685
1.85225,0.0399682
1.8525,0.013111
1.85275,-0.0140804
1.853,-0.0210212
1.85325,-0.00424323
1.8535,0.0247698
1.85375,0.0128009
1.854,-0.000282041
1.85425,-0.00593321
1.8545,-0.017656
1.85475,0.00401049
1.855,-0.0169986
1.85525,-0.0543376
1.8555,-0.000532101
1.85575,-0.0408912
1.856,0.0199824
1.85625,0.0268362
1.8565,0.00570411
1.85675,-0.00239178
1.857,-0.00946964
1.85725,-0.0361335
1.8575,0.0218286
1.85775,0.0353672
1.858,0.0191013
1.85825,0.0152139
1.8585,0.081798
1.85875,0.120709
1.859,0.0255012
1.85925,0.0186209
1.8595,0.0516832
1.85975,0.0669489
1.86,0.0561635
1.86025,0.0966011
1.8605,0.0815394
1.86075,0.0150184
1.861,0.0815523
1.86125,0.0515849
1.8615,0.0236246
1.86175,0.0573103
1.862,0.0501468
1.86225,0.0496533
1.8625,0.0188597
1.86275,-0.00440466
1.863,-0.0230761
1.86325,-0.0150654
1.8635,-0.0305186
1.86375,-0.0443326
1.864,-0.0716565
1.86425,-0.0121332
1.8645,-0.0216182
1.86475,-0.0712415
1.865,-0.0353708
1.86525,-0.0702147
1.8655,-0.044898
1.86575,-0.0918269
1.866,-0.0447257
1.86625,-0.0371863
1.8665,-0.0163141
1.86675,-0.0863109
1.867,-0.0700024
1.86725,-0.0217557
1.8675,-0.0513269
1.86775,-0.0352863
1.868,-0.0396752
1.86825,-0.00786252
1.8685,-0.00987333
1.86875,0.0186751
1.869,-0.0230888
1.86925,0.0630281
1.8695,-0.0206643
1.86975,-0.0163275
1.87,0.0087606
1.87025,-0.0489255
1.8705,-0.0470483
1.87075,-0.00601064
1.871,-0.0510764
1.87125,-0.0145238
1.8715,-0.0412997
1.87175,-0.0163211
1.872,-0.0621669
1.87225,-0.0203458
1.8725,-0.00689034
1.87275,-0.0520909
1.873,-0.0162568
1.87325,0.00206108
1.8735,-0.0229744
1.87375,-0.0460834
1.874,-0.00681448
1.87425,0.0273223
1.8745,-0.0103389
1.87475,0.00211195
1.875,0.0516411
1.87525,0.0383283
1.8755,0.0178463
1.87575,0.0914848
1.876,0.123621
1.87625,0.0943981
1.8765,0.0459653
1.87675,0.0910001
1.877,0.145511
1.87725,0.0517871
1.8775,0.0723652
1.87775,0.0528392
1.878,0.105401
1.87825,0.101316
1.8785,0.0821334
1.87875,0.0548122
1.879,0.0829831
1.87925,0.0740125
1.8795,0.0387478
1.87975,0.0263234
1.88,-0.0283555
1.88025,0.00537769
1.8805,-0.019614
1.88075,-0.00345238
1.881,-0.0419765
1.88125,-0.0580644
1.8815,-0.011421
1.88175,-0.0690563
1.882,-0.04763
1.88225,-0.0583227
1.8825,-0.0572741
1.88275,-0.0183111
1.883,-0.0479529
1.88325,-0.0240621
1.8835,-0.00459113
1.88375,-0.0381903
1.884,-0.0266939
1.88425,-0.0276368
1.8845,-0.00328764
1.88475,-0.0173904
1.885,-0.0384293
1.88525,-0.0786087
1.8855,-0.0470302
1.88575,0.0343823
1.886,0.0376275
1.88625,-0.0507783
1.8865,0.0273712
1.88675,-0.0319825
1.887,-0.0345074
1.88725,-0.0843606
1.8875,-0.0491349
1.88775,-0.0104037
1.888,-0.0647312
1.88825,-0.0409779
1.8885,-0.0559719
1.88875,-0.0605947
1.889,-0.0322686
1.88925,-0.0126524
1.8895,-0.0905905
1.88975,-0.0404991
1.89,-0.0948313
1.89025,-0.0733645
1.8905,-0.0599206
1.89075,-0.00967843
1.891,-0.0192669
1.89125,-0.0145027
1.8915,0.00305743
1.89175,0.00794441
1.892,0.00779872
1.89225,0.0207502
1.8925,0.046655
1.89275,0.00831796
1.893,0.061854
1.89325,0.123014
1.8935,0.11413
1.89375,0.0780565
1.894,0.0324368
1.89425,0.0744747
1.8945,0.0708921
1.89475,0.05227
1.895,0.0993653
1.89525,0.115514
1.8955,0.0653418
1.89575,0.0639593
1.896,0.0346716
1.89625,0.0231791
1.8965,0.0392374
1.89675,0.030801
1.897,0.0657975
1.89725,0.0196761
1.8975,-0.0274576
1.89775,-0.037716
1.898,-0.0236208
1.89825,0.0189686
1.8985,-0.0407287
1.89875,-0.00114717
1.899,-0.0230286
1.89925,0.00880259
1.8995,-0.0180077
1.89975,-0.0030164
1.9,9.36E-05
1.90025,0.00242549
1.9005,0.0113896
1.90075,-0.0126224
1.901,-0.0149602
1.90125,0.0272681
1.9015,0.0257906
1.90175,-0.0127999
1.902,0.0406949
1.90225,-0.0118971
1.9025,0.0105016
1.90275,-0.0156504
1.903,-0.021809
1.90325,-0.00388311
1.9035,-0.0512362
1.90375,-6.73E-02
1.904,-0.0760788
1.90425,-0.0384509
1.9045,-0.0586378
1.90475,-0.0765309
1.905,-0.101073
1.90525,-0.105649
1.9055,-0.124385
1.90575,-0.012161
1.906,-0.0947347
1.90625,-0.100971
1.9065,-0.1004
1.90675,-0.0912809
1.907,-0.064005
1.90725,-0.0400048
1.9075,-0.0586282
1.90775,-0.0049918
1.908,-0.0293642
1.90825,-0.0301064
1.9085,0.000534711
1.90875,-0.00552995
1.909,0.0302912
1.90925,0.00999589
1.9095,0.0340328
1.90975,0.0503566
1.91,0.0444272
1.91025,0.0713936
1.9105,0.0469981
1.91075,0.0730742
1.911,0.0848182
1.91125,0.0812836
1.9115,0.0296061
1.91175,0.0436571
1.912,0.0297003
1.91225,0.0510306
1.9125,0.0145735
1.91275,0.0317864
1.913,0.0400464
1.91325,0.0796761
1.9135,0.0563238
1.91375,0.00185486
1.914,0.00439732
1.91425,0.049151
1.9145,-0.00277192
1.91475,0.0345273
1.915,-0.0308814
1.91525,-0.0173769
1.9155,0.0446728
1.91575,0.00845598
1.916,0.0496268
1.91625,0.0254177
1.9165,-0.00256429
1.91675,0.0066681
1.917,0.00716581
1.91725,0.0452388
1.9175,0.0336125
1.91775,0.0256932
1.918,0.0543905
1.91825,0.0433907
1.9185,0.0400384
1.91875,0.0339548
1.919,0.0182334
1.91925,9.59E-03
1.9195,0.0138257
1.91975,0.0392329
1.92,0.0202522
1.92025,-0.0144254
1.9205,-0.0214736
1.92075,-0.0446906
1.921,-0.077114
1.92125,-0.0695059
1.9215,-0.0789783
1.92175,-0.0524702
1.922,-0.0443177
1.92225,-0.0471928
1.9225,-0.0485684
1.92275,-0.0962011
1.923,-0.109718
1.92325,-0.0585809
1.9235,-0.0679005
1.92375,-0.0491043
1.924,-0.0711052
1.92425,-0.0330625
1.9245,-0.0786854
1.92475,-0.0264346
1.925,-0.00202539
1.92525,-0.0162303
1.9255,-0.0213958
1.92575,-0.0174119
1.926,-0.0193465
1.92625,0.0342838
1.9265,0.025291
1.92675,0.0619943
1.927,-0.00230409
1.92725,0.00907926
1.9275,0.0103433
1.92775,0.0187862
1.928,0.0237462
1.92825,0.0285202
1.9285,0.00723948
1.92875,0.0325162
1.929,0.0109272
1.92925,-0.00183981
1.9295,-0.0028156
1.92975,-0.01999
1.93,-0.0161369
1.93025,0.0202746
1.9305,0.0592138
1.93075,0.0216224
1.931,0.0489333
1.93125,0.0449228
1.9315,-0.0137043
1.93175,0.0251336
1.932,-0.0420949
1.93225,0.0760715
1.9325,0.0702393
1.93275,0.0702946
1.933,0.0429308
1.93325,0.0303481
1.9335,0.0644906
1.93375,0.0831729
1.934,0.0571165
1.93425,0.0629328
1.9345,0.0496548
1.93475,0.055925
1.935,0.0386049
1.93525,0.100494
1.9355,0.067227
1.93575,0.0729521
1.936,0.0371144
1.93625,0.0194426
1.9365,0.003831
1.93675,-0.00372463
1.937,-0.000687129
1.93725,-0.0245737
1.9375,-0.022003
1.93775,-0.0273686
1.938,-0.0498505
1.93825,-0.060655
1.9385,-0.0533466
1.93875,-0.0431792
1.939,-0.0741802
1.93925,-0.138508
1.9395,-0.120215
1.93975,-0.0979421
1.94,-0.0765925
1.94025,-0.144288
1.9405,-0.0726766
1.94075,-0.0235439
1.941,-0.0793247
1.94125,-0.0778744
1.9415,-0.022636
1.94175,0.00175983
1.942,-0.0802224
1.94225,-0.0131714
1.9425,0.0309277
1.94275,0.0478473
1.943,-1.66E-03
1.94325,-0.041591
1.9435,0.0295582
1.94375,0.0652392
1.944,0.0254179
1.94425,0.0413999
1.9445,-0.00370751
1.94475,0.0282619
1.945,-0.0107222
1.94525,0.0215251
1.9455,0.0129735
1.94575,0.0129641
1.946,-0.00667991
1.94625,0.00299515
1.9465,3.60E-05
1.94675,-0.0147414
1.947,0.0330336
1.94725,0.0127455
1.9475,-0.0413869
1.94775,-0.0643996
1.948,0.0487317
1.94825,0.0340306
1.9485,0.00960325
1.94875,-0.0266597
1.949,0.0397193
1.94925,0.0260618
1.9495,0.0280584
1.94975,0.0606291
1.95,2.29E-02
1.95025,0.0339652
1.9505,0.0214084
1.95075,0.0774608
1.951,0.0741422
1.95125,0.112824
1.9515,0.0294125
1.95175,0.139333
1.952,0.119305
1.95225,0.0381307
1.9525,0.0739206
1.95275,0.0539039
1.953,0.0391861
1.95325,0.0562806
1.9535,0.0289826
1.95375,0.0119786
1.954,0.0212322
1.95425,0.00474073
1.9545,-1.72E-02
1.95475,-0.00377022
1.955,-0.0127127
1.95525,-0.025121
1.9555,-0.0298028
1.95575,-0.0698009
1.956,-0.0476179
1.95625,-0.0214462
1.9565,-0.0757676
1.95675,-0.0847794
1.957,-0.0673422
1.95725,-0.112308
1.9575,-0.0764151
1.95775,-0.0317725
1.958,-0.078373
1.95825,-0.0238401
1.9585,-0.0511055
1.95875,-0.0144282
1.959,-0.0709258
1.95925,-0.0524898
1.9595,-0.054856
1.95975,-0.0302254
1.96,-0.022347
1.96025,-0.0642162
1.9605,0.0104429
1.96075,-0.000145583
1.961,6.06E-05
1.96125,0.0129334
1.9615,-0.0237634
1.96175,0.000630348
1.962,-0.0193337
1.96225,-0.00119754
1.9625,-0.0363203
1.96275,-0.0188801
1.963,-0.0412858
1.96325,-0.0264919
1.9635,-0.0187638
1.96375,-0.00323548
1.964,-0.0496678
1.96425,-0.0601167
1.9645,-0.0276523
1.96475,-0.0559612
1.965,-0.00548455
1.96525,-0.0117287
1.9655,0.0340667
1.96575,-0.0229697
1.966,0.0194988
1.96625,0.0101923
1.9665,0.0494025
1.96675,0.0240903
1.967,0.101948
1.96725,0.019642
1.9675,0.0356863
1.96775,0.0882466
1.968,0.104675
1.96825,0.0320436
1.9685,0.0823662
1.96875,0.0883367
1.969,0.0921735
1.96925,0.0952548
1.9695,0.100779
1.96975,0.0756663
1.97,0.109584
1.97025,0.0653292
1.9705,0.0827407
1.97075,0.0421228
1.971,0.0336229
1.97125,-0.0120176
1.9715,0.0124975
1.97175,-0.0375001
1.972,-0.0200452
1.97225,-4.46E-02
1.9725,-0.00274621
1.97275,-0.0630904
1.973,-0.0375929
1.97325,-0.0637388
1.9735,-0.0852909
1.97375,-0.0211924
1.974,-0.031137
1.97425,0.000795706
1.9745,-0.0363133
1.97475,-0.0245523
1.975,-0.0364181
1.97525,0.00885377
1.9755,-0.0515118
1.97575,-0.0468815
1.976,0.0140033
1.97625,-0.0372587
1.9765,-0.029102
1.97675,-0.00297227
1.977,0.0238937
1.97725,-0.0247206
1.9775,-0.0353354
1.97775,-0.0050381
1.978,-0.0329127
1.97825,-0.00236847
1.9785,0.0103882
1.97875,-0.0204653
1.979,-0.0248331
1.97925,-0.0616598
1.9795,-0.024396
1.97975,-0.0434189
1.98,-0.0359617
1.98025,-0.0434394
1.9805,-0.0880767
1.98075,-0.0205579
1.981,-0.00659057
1.98125,-0.0363035
1.9815,-0.0256937
1.98175,0.00369124
1.982,-0.0365835
1.98225,-0.0435514
1.9825,-0.0188687
1.98275,-0.00161412
1.983,0.0355313
1.98325,0.0208905
1.9835,0.0631689
1.98375,0.0647843
1.984,0.0304365
1.98425,0.105057
1.9845,0.110939
1.98475,0.0532023
1.985,0.114986
1.98525,0.0961087
1.9855,0.0879604
1.98575,0.111697
1.986,0.0544287
1.98625,0.0725884
1.9865,0.0885794
1.98675,0.0457483
1.987,0.0235049
1.98725,0.0279304
1.9875,0.0151558
1.98775,0.0602438
1.988,0.0725563
1.98825,0.029213
1.9885,0.0053322
1.98875,0.0253171
1.989,-0.0371247
1.98925,0.0229855
1.9895,-0.0308253
1.98975,0.0341267
1.99,-0.0240631
1.99025,0.0164365
1.9905,0.00231427
1.99075,-0.00566619
1.991,0.0109968
1.99125,-0.00611341
1.9915,0.00507795
1.99175,0.0154899
1.992,-0.0156212
1.99225,-0.0138731
1.9925,0.0279299
1.99275,-0.0174833
1.993,0.0207632
1.99325,0.00156277
1.9935,0.0749062
1.99375,0.0352258
1.994,-0.00732116
1.99425,-0.0194402
1.9945,0.0412521
1.99475,-0.0307936
1.995,-0.000365356
1.99525,-0.0772572
1.9955,-0.060077
1.99575,-0.0123749
1.996,-0.0579035
1.99625,-0.0574308
1.9965,-0.0560799
1.99675,-0.00815509
1.997,-0.0423713
1.99725,-0.0762839
1.9975,-0.00347145
1.99775,-0.0387168
1.998,-0.0463561
1.99825,-0.0165576
1.9985,-0.00166475
1.99875,0.00746209
1.999,-0.0153359
1.99925,-0.00125031
1.9995,-0.00906803
