Time (s),Channel 1 (V)
0,0.0266701
0.00025,0.0406989
0.0005,0.0514966
0.00075,0.053847
0.001,0.0622672
0.00125,0.100558
0.0015,0.0844342
0.00175,0.0848846
0.002,0.122766
0.00225,0.0497346
0.0025,0.120955
0.00275,0.0969605
0.003,0.0723458
0.00325,0.133922
0.0035,0.104654
0.00375,0.0917883
0.004,0.0978788
0.00425,0.0508913
0.0045,0.0279157
0.00475,0.0807047
0.005,0.10935
0.00525,0.0358357
0.0055,0.070929
0.00575,0.0518583
0.006,0.0218025
0.00625,0.0196523
0.0065,0.0109719
0.00675,0.0133888
0.007,0.0170107
0.00725,0.0557889
0.0075,0.020525
0.00775,0.0568354
0.008,0.0377444
0.00825,0.037391
0.0085,0.0442214
0.00875,0.0494836
0.009,0.0608212
0.00925,0.0321106
0.0095,0.0460042
0.00975,0.0398117
0.01,0.0662281
0.01025,0.0379953
0.0105,0.0627822
0.01075,0.0203971
0.011,0.022505
0.01125,0.0594972
0.0115,0.0672165
0.01175,0.077084
0.012,0.0267843
0.01225,-0.0352178
0.0125,0.044054
0.01275,-0.0349793
0.013,0.00787549
0.01325,-0.0218626
0.0135,-0.0357396
0.01375,-0.0506944
0.014,-0.0482819
0.01425,-0.0802105
0.0145,-0.0288903
0.01475,-0.01385
0.015,-0.038788
0.01525,-0.00840244
0.0155,-0.00833614
0.01575,0.0185282
0.016,0.0382928
0.01625,0.0380803
0.0165,0.0502714
0.01675,0.0639021
0.017,0.0809433
0.01725,0.0728436
0.0175,0.0886762
0.01775,0.121419
0.018,0.0629285
0.01825,0.168337
0.0185,0.163965
0.01875,0.107585
0.019,0.10597
0.01925,0.105652
0.0195,0.135296
0.01975,0.152779
0.02,0.109275
0.02025,0.109831
0.0205,0.0839809
0.02075,0.0840204
0.021,0.107986
0.02125,0.148651
0.0215,0.0921928
0.02175,0.0985043
0.022,0.0657037
0.02225,0.074162
0.0225,0.0695438
0.02275,0.088893
0.023,0.0430485
0.02325,0.0498288
0.0235,0.066853
0.02375,0.0624114
0.024,0.0735371
0.02425,0.0708445
0.0245,0.081975
0.02475,0.0856888
0.025,0.0819109
0.02525,0.0917118
0.0255,0.0763633
0.02575,0.0660017
0.026,0.0862623
0.02625,0.0518247
0.0265,0.0680026
0.02675,0.0794724
0.027,0.0691501
0.02725,0.113116
0.0275,0.0678939
0.02775,0.107161
0.028,0.0205826
0.02825,0.0970195
0.0285,0.0331588
0.02875,0.0496352
0.029,0.0137342
0.02925,0.0119476
0.0295,0.00351928
0.02975,0.0624258
0.03,0.0249386
0.03025,0.0108816
0.0305,-0.00945624
0.03075,0.0194546
0.031,0.0447518
0.03125,0.0518725
0.0315,-0.00744861
0.03175,0.0448988
0.032,0.0544682
0.03225,0.0880635
0.0325,0.0899433
0.03275,0.0823963
0.033,0.0924499
0.03325,0.105058
0.0335,0.118891
0.03375,0.14541
0.034,0.152325
0.03425,0.185488
0.0345,0.156302
0.03475,0.149651
0.035,0.173149
0.03525,0.173023
0.0355,0.155602
0.03575,0.222999
0.036,0.225465
0.03625,0.216761
0.0365,0.186712
0.03675,0.184566
0.037,0.157186
0.03725,0.139626
0.0375,0.178427
0.03775,0.128164
0.038,0.158667
0.03825,0.12349
0.0385,0.147621
0.03875,0.186411
0.039,0.13684
0.03925,0.128114
0.0395,0.196188
0.03975,0.115262
0.04,0.0951132
0.04025,0.141638
0.0405,0.109673
0.04075,0.12055
0.041,0.148377
0.04125,0.146284
0.0415,0.138661
0.04175,0.146181
0.042,0.149742
0.04225,0.171344
0.0425,0.175254
0.04275,0.131523
0.043,0.138826
0.04325,0.140867
0.0435,0.104175
0.04375,0.153622
0.044,0.119753
0.04425,0.151844
0.0445,0.136097
0.04475,0.123172
0.045,0.108669
0.04525,0.138943
0.0455,0.176628
0.04575,0.129092
0.046,0.105818
0.04625,0.105008
0.0465,0.0604572
0.04675,0.1424
0.047,0.0388514
0.04725,0.110756
0.0475,0.114888
0.04775,0.085723
0.048,0.10209
0.04825,0.0823969
0.0485,0.141783
0.04875,0.123027
0.049,0.123677
0.04925,0.133918
0.0495,0.158166
0.04975,0.172938
0.05,0.188177
0.05025,0.207575
0.0505,0.203027
0.05075,0.200716
0.051,0.269649
0.05125,0.221417
0.0515,0.269396
0.05175,0.290078
0.052,0.223989
0.05225,0.292742
0.0525,0.272888
0.05275,0.293938
0.053,0.310474
0.05325,0.288849
0.0535,0.253478
0.05375,0.236303
0.054,0.303661
0.05425,0.263597
0.0545,0.305772
0.05475,0.214213
0.055,0.189339
0.05525,0.240617
0.0555,0.247007
0.05575,0.283338
0.056,0.270886
0.05625,0.238001
0.0565,0.225835
0.05675,0.24422
0.057,0.246255
0.05725,0.241241
0.0575,0.215505
0.05775,0.226224
0.058,0.220986
0.05825,0.235957
0.0585,0.235761
0.05875,0.237621
0.059,0.243691
0.05925,0.235552
0.0595,0.244899
0.05975,0.252885
0.06,0.221541
0.06025,0.262237
0.0605,0.248092
0.06075,0.244182
0.061,0.236749
0.06125,0.258252
0.0615,0.26323
0.06175,0.204712
0.062,0.187722
0.06225,0.228614
0.0625,0.178231
0.06275,0.168753
0.063,0.171904
0.06325,0.239664
0.0635,0.231222
0.06375,0.210899
0.064,0.166589
0.06425,0.212371
0.0645,0.164263
0.06475,0.24387
0.065,0.20283
0.06525,0.210648
0.0655,0.222431
0.06575,0.233436
0.066,0.264439
0.06625,0.268083
0.0665,0.28029
0.06675,0.293423
0.067,0.2997
0.06725,0.307667
0.0675,0.315341
0.06775,0.349537
0.068,0.367116
0.06825,0.34414
0.0685,0.322427
0.06875,0.342759
0.069,0.379418
0.06925,0.3778
0.0695,0.404814
0.06975,0.399838
0.07,0.418505
0.07025,0.347362
0.0705,0.409216
0.07075,0.353309
0.071,0.341178
0.07125,0.312448
0.0715,0.392434
0.07175,0.337334
0.072,0.34569
0.07225,0.362377
0.0725,0.326944
0.07275,0.287575
0.073,0.362818
0.07325,0.303766
0.0735,0.373291
0.07375,0.317913
0.074,0.314639
0.07425,0.337873
0.0745,0.335075
0.07475,0.339702
0.075,0.346714
0.07525,0.356201
0.0755,0.345109
0.07575,0.35805
0.076,0.361004
0.07625,0.376622
0.0765,0.370661
0.07675,0.334303
0.077,0.372515
0.07725,0.385354
0.0775,0.397582
0.07775,0.389803
0.078,0.397914
0.07825,0.324507
0.0785,0.390828
0.07875,0.307383
0.079,0.37088
0.07925,0.326356
0.0795,0.364731
0.07975,0.344053
0.08,0.342766
0.08025,0.299795
0.0805,0.290884
0.08075,0.357967
0.081,0.341189
0.08125,0.32553
0.0815,0.318407
0.08175,0.350027
0.082,0.329304
0.08225,0.374221
0.0825,0.352519
0.08275,0.374904
0.083,0.380364
0.08325,0.403656
0.0835,0.417785
0.08375,0.445607
0.084,0.434228
0.08425,0.460121
0.0845,0.444089
0.08475,0.468575
0.085,0.490848
0.08525,0.520354
0.0855,0.483201
0.08575,0.538436
0.086,0.529296
0.08625,0.525251
0.0865,0.555542
0.08675,0.468343
0.087,0.481743
0.08725,0.483181
0.0875,0.44092
0.08775,0.484416
0.088,0.486541
0.08825,0.436219
0.0885,0.408322
0.08875,0.43255
0.089,0.426182
0.08925,0.492349
0.0895,0.470624
0.08975,0.445888
0.09,0.452232
0.09025,0.461206
0.0905,0.435538
0.09075,0.474774
0.091,0.480846
0.09125,0.461057
0.0915,0.464671
0.09175,0.470164
0.092,0.471809
0.09225,0.491978
0.0925,0.451026
0.09275,0.488755
0.093,0.476271
0.09325,0.455772
0.0935,0.497249
0.09375,0.482646
0.094,0.438304
0.09425,0.433868
0.0945,0.478236
0.09475,0.494579
0.095,0.453061
0.09525,0.486672
0.0955,0.466714
0.09575,0.399636
0.096,0.481924
0.09625,0.447802
0.0965,0.457308
0.09675,0.472103
0.097,0.466139
0.09725,0.462105
0.0975,0.41794
0.09775,0.422822
0.098,0.460061
0.09825,0.48197
0.0985,0.43561
0.09875,0.45421
0.099,0.480395
0.09925,0.478781
0.0995,0.510381
0.09975,0.507217
0.1,0.527201
0.10025,0.542835
0.1005,0.557249
0.10075,0.571479
0.101,0.594497
0.10125,0.583231
0.1015,0.543799
0.10175,0.597065
0.102,0.613053
0.10225,0.624141
0.1025,0.631894
0.10275,0.639684
0.103,0.609029
0.10325,0.644037
0.1035,0.653986
0.10375,0.627881
0.104,0.617463
0.10425,0.566149
0.1045,0.558637
0.10475,0.543813
0.105,0.605832
0.10525,0.548319
0.1055,0.621833
0.10575,0.505429
0.106,0.574315
0.10625,0.554088
0.1065,0.599165
0.10675,0.556188
0.107,0.596251
0.10725,0.547812
0.1075,0.556484
0.10775,0.585072
0.108,0.573319
0.10825,0.582334
0.1085,0.580653
0.10875,0.582137
0.109,0.590717
0.10925,0.585327
0.1095,0.603455
0.10975,0.630672
0.11,0.566645
0.11025,0.611665
0.1105,0.571679
0.11075,0.530054
0.111,0.608352
0.11125,0.533235
0.1115,0.563447
0.11175,0.616822
0.112,0.536493
0.11225,0.569496
0.1125,0.589991
0.11275,0.54292
0.113,0.536183
0.11325,0.556232
0.1135,0.512682
0.11375,0.550468
0.114,0.501484
0.11425,0.583402
0.1145,0.550352
0.11475,0.528563
0.115,0.583386
0.11525,0.59966
0.1155,0.567988
0.11575,0.558054
0.116,0.582404
0.11625,0.610196
0.1165,0.624061
0.11675,0.634083
0.117,0.642655
0.11725,0.65675
0.1175,0.701463
0.11775,0.66868
0.118,0.648129
0.11825,0.722382
0.1185,0.724055
0.11875,0.739698
0.119,0.696958
0.11925,0.728871
0.1195,0.668892
0.11975,0.686077
0.12,0.725438
0.12025,0.734957
0.1205,0.747618
0.12075,0.66796
0.121,0.689827
0.12125,0.697448
0.1215,0.672304
0.12175,0.670005
0.122,0.693308
0.12225,0.704016
0.1225,0.709809
0.12275,0.718036
0.123,0.666119
0.12325,0.602442
0.1235,0.64927
0.12375,0.68748
0.124,0.665737
0.12425,0.677011
0.1245,0.67135
0.12475,0.665615
0.125,0.665918
0.12525,0.666077
0.1255,0.669704
0.12575,0.675653
0.126,0.687692
0.12625,0.6499
0.1265,0.655413
0.12675,0.697692
0.127,0.641366
0.12725,0.726381
0.1275,0.648135
0.12775,0.696885
0.128,0.630845
0.12825,0.679781
0.1285,0.648455
0.12875,0.633921
0.129,0.613892
0.12925,0.664755
0.1295,0.586019
0.12975,0.586714
0.13,0.645798
0.13025,0.568963
0.1305,0.613217
0.13075,0.664946
0.131,0.609712
0.13125,0.603624
0.1315,0.628806
0.13175,0.635332
0.132,0.619924
0.13225,0.647512
0.1325,0.648677
0.13275,0.639614
0.133,0.669562
0.13325,0.685111
0.1335,0.691835
0.13375,0.721574
0.134,0.711428
0.13425,0.749
0.1345,0.724043
0.13475,0.740108
0.135,0.738136
0.13525,0.764998
0.1355,0.827919
0.13575,0.821338
0.136,0.779746
0.13625,0.819904
0.1365,0.718426
0.13675,0.753906
0.137,0.783305
0.13725,0.778808
0.1375,0.723588
0.13775,0.743716
0.138,0.76151
0.13825,0.754416
0.1385,0.753914
0.13875,0.719421
0.139,0.653492
0.13925,0.714855
0.1395,0.691982
0.13975,0.649681
0.14,0.670917
0.14025,0.729349
0.1405,0.67444
0.14075,0.70059
0.141,0.710648
0.14125,0.695456
0.1415,0.693654
0.14175,0.696881
0.142,0.706999
0.14225,0.724991
0.1425,0.692294
0.14275,0.709225
0.143,0.717322
0.14325,0.699449
0.1435,0.706726
0.14375,0.666787
0.144,0.723872
0.14425,0.645128
0.1445,0.73515
0.14475,0.716304
0.145,0.663478
0.14525,0.650566
0.1455,0.656936
0.14575,0.638207
0.146,0.602439
0.14625,0.602379
0.1465,0.688322
0.14675,0.606053
0.147,0.568905
0.14725,0.575961
0.1475,0.628001
0.14775,0.607051
0.148,0.624659
0.14825,0.572795
0.1485,0.624502
0.14875,0.648325
0.149,0.654503
0.14925,0.637211
0.1495,0.661744
0.14975,0.682379
0.15,0.688459
0.15025,0.690645
0.1505,0.689423
0.15075,0.734359
0.151,0.758041
0.15125,0.75735
0.1515,0.716301
0.15175,0.760132
0.152,0.762848
0.15225,0.742697
0.1525,0.816547
0.15275,0.730967
0.153,0.778906
0.15325,0.764643
0.1535,0.733089
0.15375,0.760493
0.154,0.766458
0.15425,0.729019
0.1545,0.751479
0.15475,0.717402
0.155,0.682128
0.15525,0.637223
0.1555,0.691436
0.15575,0.739185
0.156,0.685656
0.15625,0.684677
0.1565,0.641703
0.15675,0.659676
0.157,0.667839
0.15725,0.623806
0.1575,0.651026
0.15775,0.660552
0.158,0.654759
0.15825,0.658851
0.1585,0.66002
0.15875,0.655633
0.159,0.655621
0.15925,0.655972
0.1595,0.656086
0.15975,0.683949
0.16,0.65248
0.16025,0.64094
0.1605,0.643876
0.16075,0.663407
0.161,0.664507
0.16125,0.620944
0.1615,0.64239
0.16175,0.659038
0.162,0.628403
0.16225,0.567927
0.1625,0.544386
0.16275,0.624748
0.163,0.555982
0.16325,0.563373
0.1635,0.544445
0.16375,0.488003
0.164,0.534604
0.16425,0.54326
0.1645,0.576159
0.16475,0.583859
0.165,0.535697
0.16525,0.565282
0.1655,0.60865
0.16575,0.583612
0.166,0.585784
0.16625,0.594696
0.1665,0.612442
0.16675,0.620736
0.167,0.629037
0.16725,0.641612
0.1675,0.65522
0.16775,0.639256
0.168,0.703177
0.16825,0.688552
0.1685,0.666785
0.16875,0.628107
0.169,0.736884
0.16925,0.646196
0.1695,0.6833
0.16975,0.715495
0.17,0.696128
0.17025,0.669797
0.1705,0.671666
0.17075,0.627926
0.171,0.670915
0.17125,0.653682
0.1715,0.58528
0.17175,0.620181
0.172,0.588908
0.17225,0.588318
0.1725,0.640448
0.17275,0.576206
0.173,0.58646
0.17325,0.562374
0.1735,0.561485
0.17375,0.557203
0.174,0.530567
0.17425,0.547117
0.1745,0.551582
0.17475,0.543774
0.175,0.551763
0.17525,0.550727
0.1755,0.53917
0.17575,0.545919
0.176,0.545013
0.17625,0.529419
0.1765,0.549064
0.17675,0.583181
0.177,0.523965
0.17725,0.539203
0.1775,0.516421
0.17775,0.560361
0.178,0.520035
0.17825,0.490639
0.1785,0.469541
0.17875,0.481944
0.179,0.472069
0.17925,0.423107
0.1795,0.464793
0.17975,0.49854
0.18,0.420556
0.18025,0.448139
0.1805,0.44623
0.18075,0.402932
0.181,0.424367
0.18125,0.433016
0.1815,0.373533
0.18175,0.417757
0.182,0.403404
0.18225,0.434699
0.1825,0.433589
0.18275,0.462616
0.183,0.463699
0.18325,0.470072
0.1835,0.479358
0.18375,0.49481
0.184,0.489705
0.18425,0.493582
0.1845,0.544619
0.18475,0.50226
0.185,0.545866
0.18525,0.461403
0.1855,0.506016
0.18575,0.573092
0.186,0.488195
0.18625,0.500643
0.1865,0.479105
0.18675,0.536673
0.187,0.498669
0.18725,0.458391
0.1875,0.519221
0.18775,0.467971
0.188,0.42638
0.18825,0.392535
0.1885,0.406144
0.18875,0.402522
0.189,0.479532
0.18925,0.411168
0.1895,0.374891
0.18975,0.396167
0.19,0.411945
0.19025,0.396526
0.1905,0.407335
0.19075,0.366206
0.191,0.386792
0.19125,0.393017
0.1915,0.375826
0.19175,0.380473
0.192,0.386158
0.19225,0.385217
0.1925,0.383406
0.19275,0.365955
0.193,0.378928
0.19325,0.361971
0.1935,0.325399
0.19375,0.297527
0.194,0.324112
0.19425,0.312854
0.1945,0.338166
0.19475,0.316469
0.195,0.353849
0.19525,0.333986
0.1955,0.245094
0.19575,0.254921
0.196,0.241739
0.19625,0.261989
0.1965,0.262156
0.19675,0.204101
0.197,0.222324
0.19725,0.177767
0.1975,0.234683
0.19775,0.254692
0.198,0.23592
0.19825,0.179408
0.1985,0.292859
0.19875,0.245532
0.199,0.213367
0.19925,0.247628
0.1995,0.272313
0.19975,0.273274
0.2,0.281172
0.20025,0.296229
0.2005,0.306232
0.20075,0.317732
0.201,0.327955
0.20125,0.363649
0.2015,0.329482
0.20175,0.307816
0.202,0.348116
0.20225,0.347606
0.2025,0.264208
0.20275,0.316871
0.203,0.358478
0.20325,0.307912
0.2035,0.310907
0.20375,0.332551
0.204,0.283834
0.20425,0.270021
0.2045,0.31666
0.20475,0.209629
0.205,0.214573
0.20525,0.265154
0.2055,0.204985
0.20575,0.222633
0.206,0.160731
0.20625,0.201058
0.2065,0.194652
0.20675,0.169736
0.207,0.170399
0.20725,0.196512
0.2075,0.176481
0.20775,0.162793
0.208,0.173797
0.20825,0.178515
0.2085,0.171598
0.20875,0.175046
0.209,0.17227
0.20925,0.164196
0.2095,0.173972
0.20975,0.190445
0.21,0.183074
0.21025,0.143696
0.2105,0.204624
0.21075,0.156342
0.211,0.169342
0.21125,0.162605
0.2115,0.120761
0.21175,0.141734
0.212,0.116757
0.21225,0.0803632
0.2125,0.0996134
0.21275,0.0546489
0.213,0.0355437
0.21325,0.0354616
0.2135,0.0912601
0.21375,0.0304294
0.214,0.0291017
0.21425,0.042327
0.2145,0.022749
0.21475,0.0409692
0.215,0.0360692
0.21525,0.0360575
0.2155,0.0372961
0.21575,0.0156882
0.216,0.0641998
0.21625,0.0547375
0.2165,0.065015
0.21675,0.0750346
0.217,0.080757
0.21725,0.102973
0.2175,0.112052
0.21775,0.107816
0.218,0.133667
0.21825,1.21E-01
0.2185,0.151771
0.21875,0.113295
0.219,0.0991974
0.21925,0.0854378
0.2195,0.0837649
0.21975,0.151256
0.22,0.144122
0.22025,0.0941529
0.2205,0.0672494
0.22075,0.0343827
0.221,0.0430883
0.22125,0.0789746
0.2215,0.0248667
0.22175,-0.0295445
0.222,0.0577153
0.22225,0.0774227
0.2225,-0.0122544
0.22275,-0.00720473
0.223,0.00966253
0.22325,0.00937594
0.2235,-0.0470992
0.22375,-0.00684563
0.224,-0.00460205
0.22425,-0.00313033
0.2245,-0.0301389
0.22475,-0.0327259
0.225,-0.0271664
0.22525,-0.0249546
0.2255,-0.0128208
0.22575,-0.0259873
0.226,-0.0263286
0.22625,-0.0774999
0.2265,-0.0829954
0.22675,-0.0643936
0.227,0.012955
0.22725,-0.0356452
0.2275,-5.31E-02
0.22775,-0.0311363
0.228,-0.0466543
0.22825,-0.089279
0.2285,-0.105441
0.22875,-0.154916
0.229,-0.0779119
0.22925,-0.0909691
0.2295,-0.112719
0.22975,-0.113352
0.23,-0.135681
0.23025,-0.146481
0.2305,-0.176937
0.23075,-0.228921
0.231,-0.187928
0.23125,-0.112156
0.2315,-0.18414
0.23175,-0.12897
0.232,-0.180326
0.23225,-0.149899
0.2325,-0.148196
0.23275,-0.142397
0.233,-0.129887
0.23325,-0.118609
0.2335,-0.104329
0.23375,-0.0872774
0.234,-0.0798703
0.23425,-0.10491
0.2345,-0.0805451
0.23475,-0.0798684
0.235,-0.0803353
0.23525,-0.0149824
0.2355,-0.0814639
0.23575,-0.100911
0.236,-0.0759308
0.23625,-0.0913789
0.2365,-0.107564
0.23675,-0.0540515
0.237,-0.0427373
0.23725,-0.131948
0.2375,-0.122515
0.23775,-0.0625328
0.238,-0.106909
0.23825,-0.188781
0.2385,-0.115508
0.23875,-0.168919
0.239,-0.169916
0.23925,-0.181509
0.2395,-0.20475
0.23975,-0.169719
0.24,-0.149108
0.24025,-0.208082
0.2405,-0.193729
0.24075,-0.173777
0.241,-0.173261
0.24125,-0.185371
0.2415,-0.196105
0.24175,-0.192926
0.242,-0.197729
0.24225,-0.188973
0.2425,-0.197791
0.24275,-0.189848
0.243,-0.193282
0.24325,-0.164499
0.2435,-0.210472
0.24375,-0.222174
0.244,-0.171498
0.24425,-0.220166
0.2445,-0.205213
0.24475,-0.241037
0.245,-0.256914
0.24525,-0.304744
0.2455,-0.265282
0.24575,-0.317561
0.246,-0.306374
0.24625,-0.342521
0.2465,-0.251606
0.24675,-0.359619
0.247,-0.258216
0.24725,-0.259294
0.2475,-0.360866
0.24775,-0.326692
0.248,-0.33137
0.24825,-0.322896
0.2485,-0.293643
0.24875,-0.275983
0.249,-0.254104
0.24925,-0.277345
0.2495,-0.259457
0.24975,-0.266257
0.25,-0.249846
0.25025,-0.241673
0.2505,-0.222329
0.25075,-0.209013
0.251,-0.232928
0.25125,-0.202137
0.2515,-0.228653
0.25175,-0.243958
0.252,-0.214833
0.25225,-0.188382
0.2525,-0.178542
0.25275,-0.151162
0.253,-0.227744
0.25325,-0.216059
0.2535,-0.232475
0.25375,-0.212544
0.254,-0.194742
0.25425,-0.245639
0.2545,-0.212047
0.25475,-0.272694
0.255,-0.230041
0.25525,-0.233555
0.2555,-0.265493
0.25575,-0.343293
0.256,-0.315393
0.25625,-0.292988
0.2565,-0.251168
0.25675,-0.307151
0.257,-0.282661
0.25725,-0.288535
0.2575,-0.316656
0.25775,-0.305847
0.258,-0.288533
0.25825,-0.290624
0.2585,-0.285435
0.25875,-0.277966
0.259,-0.304159
0.25925,-0.313074
0.2595,-0.281067
0.25975,-0.253714
0.26,-0.32764
0.26025,-0.316699
0.2605,-0.299849
0.26075,-0.341295
0.261,-0.261296
0.26125,-0.291278
0.2615,-0.281539
0.26175,-0.383477
0.262,-0.325786
0.26225,-0.327701
0.2625,-0.333446
0.26275,-0.388844
0.263,-0.324951
0.26325,-0.348112
0.2635,-0.330144
0.26375,-0.370258
0.264,-0.397629
0.26425,-0.359228
0.2645,-0.372578
0.26475,-0.332682
0.265,-0.341437
0.26525,-0.364985
0.2655,-0.333406
0.26575,-0.360558
0.266,-0.32684
0.26625,-0.316059
0.2665,-0.311165
0.26675,-0.303687
0.267,-0.283013
0.26725,-0.276349
0.2675,-0.246173
0.26775,-0.227357
0.268,-0.231118
0.26825,-0.273169
0.2685,-0.22297
0.26875,-0.288124
0.269,-0.28464
0.26925,-0.214591
0.2695,-0.249358
0.26975,-0.224406
0.27,-0.230185
0.27025,-0.275205
0.2705,-0.234007
0.27075,-0.232256
0.271,-0.231167
0.27125,-0.318966
0.2715,-0.270176
0.27175,-0.293609
0.272,-0.304487
0.27225,-0.310562
0.2725,-0.266272
0.27275,-0.263029
0.273,-0.331512
0.27325,-0.293167
0.2735,-0.31165
0.27375,-0.321155
0.274,-0.309103
0.27425,-0.32027
0.2745,-0.31316
0.27475,-0.307376
0.275,-0.304079
0.27525,-0.30062
0.2755,-0.283691
0.27575,-0.287796
0.276,-0.312797
0.27625,-0.306056
0.2765,-0.259995
0.27675,-0.355913
0.277,-0.318933
0.27725,-0.319628
0.2775,-0.347937
0.27775,-0.359418
0.278,-0.351905
0.27825,-0.292041
0.2785,-0.350988
0.27875,-0.331576
0.279,-0.343497
0.27925,-0.391116
0.2795,-0.312906
0.27975,-0.319801
0.28,-0.338233
0.28025,-0.397235
0.2805,-0.325427
0.28075,-0.353328
0.281,-0.386938
0.28125,-0.363161
0.2815,-0.398479
0.28175,-0.328554
0.282,-0.38113
0.28225,-0.344065
0.2825,-0.341247
0.28275,-0.321498
0.283,-0.299049
0.28325,-0.286117
0.2835,-0.274378
0.28375,-0.273888
0.284,-0.248931
0.28425,-0.268406
0.2845,-0.225759
0.28475,-0.224825
0.285,-0.215142
0.28525,-0.184627
0.2855,-0.219428
0.28575,-0.204789
0.286,-0.137329
0.28625,-0.214443
0.2865,-0.220316
0.28675,-0.223209
0.287,-0.180289
0.28725,-0.238273
0.2875,-0.242451
0.28775,-0.193195
0.288,-0.200583
0.28825,-0.244004
0.2885,-0.21896
0.28875,-0.19498
0.289,-0.249613
0.28925,-0.250112
0.2895,-0.282999
0.28975,-0.27938
0.29,-0.283702
0.29025,-0.271154
0.2905,-0.244283
0.29075,-0.224775
0.291,-0.26942
0.29125,-0.235439
0.2915,-0.245757
0.29175,-0.24259
0.292,-0.249863
0.29225,-0.23044
0.2925,-0.238398
0.29275,-0.197948
0.293,-0.221729
0.29325,-0.22889
0.2935,-0.248215
0.29375,-0.27194
0.294,-0.226213
0.29425,-0.285829
0.2945,-0.19566
0.29475,-0.273704
0.295,-0.227733
0.29525,-0.302602
0.2955,-0.259855
0.29575,-0.296773
0.296,-0.285002
0.29625,-0.306117
0.2965,-0.288601
0.29675,-0.251491
0.297,-0.28574
0.29725,-0.335879
0.2975,-0.321278
0.29775,-0.25374
0.298,-0.290575
0.29825,-0.242981
0.2985,-0.228337
0.29875,-0.271299
0.299,-0.267054
0.29925,-0.230164
0.2995,-0.226412
0.29975,-0.208003
0.3,-0.195946
0.30025,-0.185919
0.3005,-0.184352
0.30075,-0.168451
0.301,-0.135322
0.30125,-0.138238
0.3015,-0.15038
0.30175,-0.140375
0.302,-0.0848604
0.30225,-0.123701
0.3025,-0.0967654
0.30275,-0.0580069
0.303,-0.0969142
0.30325,-0.107993
0.3035,-0.0916066
0.30375,-0.141704
0.304,-0.085676
0.30425,-0.144724
0.3045,-0.142895
0.30475,-0.131977
0.305,-0.125817
0.30525,-0.106176
0.3055,-0.0796591
0.30575,-0.136555
0.306,-0.135453
0.30625,-0.168603
0.3065,-0.186983
0.30675,-0.145073
0.307,-0.16775
0.30725,-0.143597
0.3075,-0.142838
0.30775,-0.158531
0.308,-0.141048
0.30825,-0.138118
0.3085,-0.137142
0.30875,-0.125375
0.309,-0.114344
0.30925,-0.110397
0.3095,-0.117189
0.30975,-0.143561
0.31,-0.0771765
0.31025,-0.120613
0.3105,-0.0850208
0.31075,-0.0980337
0.311,-0.113797
0.31125,-0.0944261
0.3115,-0.128555
0.31175,-0.146564
0.312,-0.177285
0.31225,-0.156923
0.3125,-0.120098
0.31275,-0.171142
0.313,-0.186923
0.31325,-0.208181
0.3135,-0.220142
0.31375,-0.187987
0.314,-0.17626
0.31425,-0.184607
0.3145,-0.124347
0.31475,-0.20382
0.315,-0.174918
0.31525,-0.135147
0.3155,-0.171981
0.31575,-0.118887
0.316,-0.109932
0.31625,-0.0878773
0.3165,-0.0867796
0.31675,-0.0734584
0.317,-0.0548716
0.31725,-0.0407029
0.3175,-0.0547888
0.31775,-0.0602966
0.318,0.0339866
0.31825,-0.00678494
0.3185,0.0164182
0.31875,0.0201133
0.319,0.00584652
0.31925,0.0187904
0.3195,0.0694592
0.31975,0.0630113
0.32,-0.0245484
0.32025,0.0166629
0.3205,-0.00465385
0.32075,0.00686618
0.321,0.023851
0.32125,-0.0455554
0.3215,0.0057815
0.32175,0.0380523
0.322,-0.021679
0.32225,0.00554721
0.3225,-0.0265612
0.32275,0.00300792
0.323,-0.0856879
0.32325,-8.58E-02
0.3235,-0.0186273
0.32375,-0.0695779
0.324,-0.0308961
0.32425,-0.0042478
0.3245,-0.0356932
0.32475,-0.0131935
0.325,-0.0142552
0.32525,-0.0046575
0.3255,-0.0101631
0.32575,0.0148645
0.326,0.00899047
0.32625,-0.00744834
0.3265,0.0515499
0.32675,-0.0244748
0.327,-0.039923
0.32725,0.00460756
0.3275,-0.0337311
0.32775,-0.0587803
0.328,-0.00531999
0.32825,0.0160439
0.3285,-0.0288238
0.32875,-0.0549998
0.329,0.00174109
0.32925,-0.0416332
0.3295,-0.0139447
0.32975,-0.0126491
0.33,-0.0509718
0.33025,-0.0405694
0.3305,-0.0186718
0.33075,-0.0893487
0.331,0.00314145
0.33125,-0.102503
0.3315,-0.0343442
0.33175,-0.0593866
0.332,-0.0427564
0.33225,-0.0238062
0.3325,-0.0172428
0.33275,-0.00997745
0.333,0.0313638
0.33325,0.0368858
0.3335,0.0543651
0.33375,0.0741456
0.334,0.0884777
0.33425,0.0912154
0.3345,0.114
0.33475,0.112323
0.335,0.165529
0.33525,0.112905
0.3355,0.179671
0.33575,0.160887
0.336,0.160038
0.33625,0.144776
0.3365,0.141337
0.33675,0.0756103
0.337,0.0898861
0.33725,0.15634
0.3375,0.114955
0.33775,0.154588
0.338,0.101132
0.33825,0.0554246
0.3385,0.100713
0.33875,0.0272971
0.339,0.125825
0.33925,0.0327366
0.3395,0.0720804
0.33975,0.0409618
0.34,0.0818438
0.34025,0.0982833
0.3405,0.0886144
0.34075,0.0724918
0.341,0.0560055
0.34125,0.0905377
0.3415,0.0889569
0.34175,0.0929283
0.342,0.0894301
0.34225,0.112643
0.3425,0.0790943
0.34275,0.115542
0.343,0.0736055
0.34325,0.15143
0.3435,0.108981
0.34375,0.0664353
0.344,0.0391282
0.34425,0.0727122
0.3445,0.123536
0.34475,0.0438151
0.345,0.0734543
0.34525,0.109263
0.3455,0.0520613
0.34575,0.0648645
0.346,0.0139695
0.34625,0.069308
0.3465,0.108953
0.34675,0.0286712
0.347,0.0215534
0.34725,0.0724907
0.3475,0.0177059
0.34775,0.0384405
0.348,0.0334119
0.34825,0.0428258
0.3485,0.0407237
0.34875,0.0877847
0.349,0.10711
0.34925,0.0958449
0.3495,0.107981
0.34975,0.116889
0.35,0.127369
0.35025,0.145528
0.3505,0.150876
0.35075,0.155563
0.351,0.14629
0.35125,0.180652
0.3515,0.203861
0.35175,0.207576
0.352,0.179243
0.35225,0.18538
0.3525,0.25632
0.35275,0.213542
0.353,0.186244
0.35325,0.225295
0.3535,0.182149
0.35375,0.186484
0.354,0.247286
0.35425,0.209021
0.3545,0.167224
0.35475,0.186282
0.355,0.173842
0.35525,0.113795
0.3555,0.171024
0.35575,0.20568
0.356,0.143171
0.35625,0.184901
0.3565,0.162673
0.35675,0.088079
0.357,0.100394
0.35725,0.153404
0.3575,0.133703
0.35775,0.152196
0.358,0.161373
0.35825,0.154349
0.3585,0.152757
0.35875,0.157514
0.359,0.149062
0.35925,0.163466
0.3595,0.174659
0.35975,0.134848
0.36,0.216541
0.36025,0.163366
0.3605,0.166491
0.36075,0.112892
0.361,0.128404
0.36125,0.193027
0.3615,0.162355
0.36175,0.156144
0.362,0.124326
0.36225,0.127705
0.3625,0.117749
0.36275,0.0954802
0.363,0.127881
0.36325,0.0554524
0.3635,0.124638
0.36375,0.0485038
0.364,0.0912733
0.36425,0.0974726
0.3645,0.08775
0.36475,0.0740074
0.365,0.102494
0.36525,0.105553
0.3655,0.130424
0.36575,0.128298
0.366,0.125968
0.36625,0.154153
0.3665,0.152185
0.36675,0.1634
0.367,0.18227
0.36725,0.189498
0.3675,0.2161
0.36775,0.238773
0.368,0.207472
0.36825,0.249039
0.3685,0.236439
0.36875,0.230834
0.369,0.252606
0.36925,0.254108
0.3695,0.19994
0.36975,0.235552
0.37,0.21694
0.37025,0.273821
0.3705,0.193258
0.37075,0.239496
0.371,0.250791
0.37125,0.149952
0.3715,0.142571
0.37175,0.212403
0.372,0.226378
0.37225,0.15368
0.3725,0.167583
0.37275,0.218446
0.373,0.150714
0.37325,0.195193
0.3735,0.173531
0.37375,0.159774
0.374,0.181644
0.37425,0.125485
0.3745,0.144821
0.37475,0.156263
0.375,0.160017
0.37525,0.164658
0.3755,0.148002
0.37575,0.189038
0.376,0.183295
0.37625,0.132231
0.3765,0.195547
0.37675,0.142339
0.377,0.179504
0.37725,0.11825
0.3775,0.165347
0.37775,0.125537
0.378,0.115713
0.37825,0.156901
0.3785,0.124417
0.37875,0.0782824
0.379,0.150243
0.37925,0.12371
0.3795,0.0726202
0.37975,0.0692316
0.38,0.117558
0.38025,0.0962539
0.3805,0.0268675
0.38075,0.134376
0.381,0.0649369
0.38125,0.102542
0.3815,0.104718
0.38175,0.0811676
0.382,0.116768
0.38225,0.11696
0.3825,0.0794881
0.38275,0.111189
0.383,0.12134
0.38325,0.14151
0.3835,0.157925
0.38375,0.153427
0.384,0.150054
0.38425,0.187016
0.3845,0.184957
0.38475,0.238537
0.385,0.221714
0.38525,0.194916
0.3855,0.223356
0.38575,0.197156
0.386,0.186416
0.38625,0.178007
0.3865,0.171569
0.38675,0.231797
0.387,0.188034
0.38725,0.239944
0.3875,0.161411
0.38775,0.141092
0.388,0.191635
0.38825,0.143847
0.3885,0.126153
0.38875,0.155129
0.389,0.12827
0.38925,0.155735
0.3895,0.147056
0.38975,0.105077
0.39,0.123085
0.39025,0.0907472
0.3905,0.109027
0.39075,0.117153
0.391,0.126238
0.39125,0.136133
0.3915,0.123577
0.39175,0.123079
0.392,0.13425
0.39225,0.116079
0.3925,0.110805
0.39275,0.138121
0.393,0.116614
0.39325,0.14195
0.3935,0.117653
0.39375,0.082123
0.394,0.151228
0.39425,0.103518
0.3945,0.128705
0.39475,0.0540519
0.395,0.0969244
0.39525,0.0752325
0.3955,0.0423863
0.39575,0.0834575
0.396,0.0194421
0.39625,0.0594428
0.3965,0.104456
0.39675,0.0149925
0.397,0.0760002
0.39725,0.00164135
0.3975,0.0439448
0.39775,0.0673414
0.398,0.0364676
0.39825,0.0103895
0.3985,0.00940003
0.39875,2.75E-02
0.399,0.0658168
0.39925,0.0562923
0.3995,0.0697201
0.39975,0.0822626
0.4,0.0930574
0.40025,0.114437
0.4005,0.115646
0.40075,0.129937
0.401,0.144676
0.40125,0.127608
0.4015,0.121344
0.40175,0.177195
0.402,0.188394
0.40225,0.196528
0.4025,0.16195
0.40275,0.15925
0.403,0.113912
0.40325,0.173495
0.4035,0.182316
0.40375,0.177406
0.404,0.113494
0.40425,0.116997
0.4045,0.133747
0.40475,0.108185
0.405,0.122533
0.40525,0.0927236
0.4055,0.130318
0.40575,0.113232
0.406,0.0228887
0.40625,0.0753691
0.4065,0.0356787
0.40675,0.0912414
0.407,0.0592327
0.40725,0.0762112
0.4075,0.0511823
0.40775,0.038295
0.408,0.0515166
0.40825,0.0584515
0.4085,0.0666666
0.40875,0.0638253
0.409,0.0600206
0.40925,0.0502151
0.4095,0.042797
0.40975,0.0159834
0.41,0.0744393
0.41025,0.0585229
0.4105,0.0445523
0.41075,0.105454
0.411,0.0721025
0.41125,0.0903026
0.4115,-0.0154493
0.41175,-0.00954827
0.412,-0.0203542
0.41225,-0.0419943
0.4125,-0.043365
0.41275,-0.00215861
0.413,-0.02201
0.41325,0.00267523
0.4135,0.00717357
0.41375,-0.00742513
0.414,0.000182667
0.41425,-0.0763253
0.4145,-0.0364643
0.41475,-0.0926772
0.415,-0.051009
0.41525,-0.0214084
0.4155,-0.00636437
0.41575,-0.00225643
0.416,-0.0131427
0.41625,0.0108987
0.4165,0.0220307
0.41675,0.029694
0.417,0.0416185
0.41725,0.0583023
0.4175,0.0616803
0.41775,0.0828152
0.418,0.0381983
0.41825,0.0837212
0.4185,0.0430411
0.41875,0.0917379
0.419,0.0970683
0.41925,0.0915179
0.4195,0.124059
0.41975,0.0310603
0.42,0.129378
0.42025,0.123436
0.4205,0.0309105
0.42075,0.0334961
0.421,0.0440357
0.42125,0.0330401
0.4215,0.0406196
0.42175,0.00931845
0.422,0.0705513
0.42225,0.0116662
0.4225,-0.0207606
0.42275,-0.000625864
0.423,-0.0233636
0.42325,0.0238994
0.4235,-0.0313121
0.42375,-0.0377271
0.424,0.0300861
0.42425,-0.0391571
0.4245,-0.0245065
0.42475,-0.00599609
0.425,-0.00715858
0.42525,-0.000938059
0.4255,-0.0251008
0.42575,-0.013784
0.426,0.00715984
0.42625,-0.00759384
0.4265,-0.0377007
0.42675,0.0243905
0.427,-0.00487051
0.42725,-0.0672522
0.4275,0.0235688
0.42775,-0.0126775
0.428,-0.0558339
0.42825,-0.00933129
0.4285,-0.0643475
0.42875,-0.0234835
0.429,-0.0666292
0.42925,-0.0241738
0.4295,-0.0666502
0.42975,-0.0944049
0.43,-0.142094
0.43025,-0.148957
0.4305,-0.0891832
0.43075,-0.0821354
0.431,-0.0664277
0.43125,-0.102985
0.4315,-0.112437
0.43175,-0.102776
0.432,-0.074377
0.43225,-0.0783108
0.4325,-0.0747491
0.43275,-0.056367
0.433,-0.0526272
0.43325,-0.0375837
0.4335,-0.0233681
0.43375,-0.0101694
0.434,0.0018648
0.43425,0.017776
0.4345,0.00426894
0.43475,0.0307078
0.435,0.0199756
0.43525,0.0197995
0.4355,0.0346455
0.43575,-0.0167699
0.436,0.0398665
0.43625,-0.0285159
0.4365,0.0244767
0.43675,-0.0316788
0.437,-0.0396035
0.43725,0.0105519
0.4375,-4.56E-02
0.43775,0.039357
0.438,-0.0628424
0.43825,-0.0325048
0.4385,-0.00245157
0.43875,0.0179883
0.439,-0.0698204
0.43925,-0.00419264
0.4395,-0.0295021
0.43975,-0.0496021
0.44,-0.0551898
0.44025,-0.0251918
0.4405,-0.0210747
0.44075,-0.0535123
0.441,-0.0671108
0.44125,-0.0477126
0.4415,-0.0558463
0.44175,-0.0565504
0.442,-0.0671213
0.44225,-0.0391237
0.4425,-0.0487399
0.44275,-0.0550018
0.443,-0.00664834
0.44325,-0.0592819
0.4435,-0.0708274
0.44375,-0.0611361
0.444,-0.0585347
0.44425,-0.10109
0.4445,-0.0841287
0.44475,-0.107601
0.445,-0.0825026
0.44525,-0.0523025
0.4455,-0.134142
0.44575,-0.156819
0.446,-0.108333
0.44625,-0.11585
0.4465,-0.183766
0.44675,-0.149214
0.447,-0.145682
0.44725,-0.129134
0.4475,-0.152082
0.44775,-0.100124
0.448,-0.149339
0.44825,-0.13668
0.4485,-0.119772
0.44875,-0.0787879
0.449,-0.11189
0.44925,-0.102258
0.4495,-0.0784574
0.44975,-0.0737706
0.45,-0.0713941
0.45025,-0.062414
0.4505,-0.0504639
0.45075,-0.022519
0.451,-0.0611635
0.45125,-0.0134022
0.4515,0.00160952
0.45175,-0.0210062
0.452,0.00256536
0.45225,0.0205759
0.4525,-0.0491894
0.45275,0.0611442
0.453,-0.0208583
0.45325,0.0133839
0.4535,4.92E-05
0.45375,0.0116524
0.454,-0.0123316
0.45425,-0.052931
0.4545,-0.0483368
0.45475,-0.0851104
0.455,-0.0568412
0.45525,0.00351292
0.4555,-0.0514898
0.45575,-0.0832955
0.456,-0.0916087
0.45625,-0.00845124
0.4565,-0.0310938
0.45675,-0.133482
0.457,-0.0931695
0.45725,-0.128933
0.4575,-0.097923
0.45775,-0.0638258
0.458,-0.0727024
0.45825,-0.0794197
0.4585,-0.0764185
0.45875,-0.0882571
0.459,-0.0653235
0.45925,-0.0948675
0.4595,-0.0531928
0.45975,-0.0479121
0.46,-0.0233629
0.46025,-0.0341804
0.4605,-0.0788755
0.46075,-0.138796
0.461,-0.0385797
0.46125,-0.135723
0.4615,-0.0915715
0.46175,-0.109331
0.462,-0.0981997
0.46225,-0.098077
0.4625,-0.0925605
0.46275,-0.128195
0.463,-0.171684
0.46325,-0.181698
0.4635,-0.134345
0.46375,-0.139179
0.464,-0.129585
0.46425,-0.189187
0.4645,-0.144707
0.46475,-0.166216
0.465,-0.1043
0.46525,-0.144273
0.4655,-0.0987559
0.46575,-0.114988
0.466,-0.112662
0.46625,-0.111035
0.4665,-0.0906508
0.46675,-0.0745398
0.467,-0.0599079
0.46725,-0.0482209
0.4675,-0.0526263
0.46775,-0.0476981
0.468,-0.0639032
0.46825,0.0268649
0.4685,-0.0206903
0.46875,0.0151489
0.469,0.0558952
0.46925,-0.0531654
0.4695,-0.018977
0.46975,0.0486608
0.47,-0.0363544
0.47025,-0.0341508
0.4705,-0.0588957
0.47075,-0.0595529
0.471,-0.00224417
0.47125,-0.0672313
0.4715,0.00449527
0.47175,-0.0927191
0.472,-0.102639
0.47225,-0.0537585
0.4725,-0.0730806
0.47275,-0.13108
0.473,-0.117488
0.47325,-0.0883493
0.4735,-0.108053
0.47375,-0.0554901
0.474,-0.0636788
0.47425,-0.0786792
0.4745,-0.092272
0.47475,-0.0848005
0.475,-0.072021
0.47525,-0.0608811
0.4755,-0.0727123
0.47575,-0.0478548
0.476,-0.0643891
0.47625,-0.0291706
0.4765,-0.102056
0.47675,-0.0966182
0.477,-0.0664191
0.47725,-0.037041
0.4775,-0.102773
0.47775,-0.114823
0.478,-0.052988
0.47825,-0.0692071
0.4785,-0.0655938
0.47875,-0.0994046
0.479,-0.106214
0.47925,-0.093636
0.4795,-0.153294
0.47975,-0.169716
0.48,-0.168381
0.48025,-0.0874506
0.4805,-0.152646
0.48075,-0.180964
0.481,-0.161655
0.48125,-0.10927
0.4815,-0.132586
0.48175,-0.102154
0.482,-0.126959
0.48225,-0.105293
0.4825,-0.101684
0.48275,-0.105007
0.483,-0.0813035
0.48325,-0.0672488
0.4835,-0.0525223
0.48375,-0.035519
0.484,-0.0224791
0.48425,0.00722641
0.4845,0.00047165
0.48475,-0.0231947
0.485,0.0648114
0.48525,0.00592771
0.4855,0.0127767
0.48575,0.0338488
0.486,0.00838669
0.48625,-0.0274351
0.4865,0.00248559
0.48675,0.0509227
0.487,-0.0267427
0.48725,-0.0196854
0.4875,-0.0313447
0.48775,-0.0157087
0.488,-0.0148112
0.48825,-0.0359664
0.4885,-0.0423911
0.48875,-0.0121458
0.489,-0.0829434
0.48925,-0.0266853
0.4895,-0.0226126
0.48975,-0.0480053
0.49,-0.0522062
0.49025,-0.0644446
0.4905,-0.100394
0.49075,-0.0816888
0.491,-0.0275988
0.49125,-0.0462801
0.4915,-0.0486992
0.49175,-0.0466707
0.492,-0.0350912
0.49225,-0.0502349
0.4925,-5.26E-02
0.49275,-0.00879943
0.493,-0.0159062
0.49325,0.020261
0.4935,-0.0322569
0.49375,-0.0823345
0.494,-0.0381447
0.49425,-0.0511903
0.4945,-0.0277733
0.49475,-0.0798089
0.495,-0.114242
0.49525,-0.0941113
0.4955,-0.106845
0.49575,-0.120283
0.496,-0.0848959
0.49625,-0.0705087
0.4965,-0.0735424
0.49675,-0.112857
0.497,-0.143046
0.49725,-0.117859
0.4975,-0.138772
0.49775,-0.0559341
0.498,-0.0872209
0.49825,-0.0961512
0.4985,-0.109522
0.49875,-0.0887149
0.499,-0.0910255
0.49925,-0.0509515
0.4995,-0.0626673
0.49975,-0.0381539
0.5,-0.0294575
0.50025,-0.015276
0.5005,-0.00261921
0.50075,0.0095096
0.501,0.00326743
0.50125,0.0168543
0.5015,-0.00504867
0.50175,0.0269664
0.502,0.0579111
0.50225,0.0702396
0.5025,0.11543
0.50275,0.0621537
0.503,0.0342908
0.50325,0.0840966
0.5035,0.0111188
0.50375,0.06606
0.504,0.0776888
0.50425,0.06589
0.5045,-0.00855095
0.50475,0.0744654
0.505,0.0205895
0.50525,-0.0158656
0.5055,-0.0304342
0.50575,-0.0218785
0.506,-0.0348557
0.50625,0.0123089
0.5065,0.015177
0.50675,-0.0234607
0.507,-0.000192112
0.50725,-0.00162434
0.5075,-0.001308
0.50775,-0.0104758
0.508,-0.0232717
0.50825,-0.0133714
0.5085,-0.0140445
0.50875,-2.18E-02
0.509,0.0020832
0.50925,0.0131743
0.5095,0.00404558
0.50975,-0.0198766
0.51,-0.0303296
0.51025,-0.029569
0.5105,0.00468225
0.51075,-0.0261689
0.511,-0.0735524
0.51125,-0.00917534
0.5115,-0.0572685
0.51175,0.00191571
0.512,-0.0681285
0.51225,-0.0758214
0.5125,-0.0874384
0.51275,-0.0204084
0.513,-0.103886
0.51325,-0.119597
0.5135,-0.0793854
0.51375,-0.0637858
0.514,-0.142373
0.51425,-0.0911534
0.5145,-0.112573
0.51475,-0.13294
0.515,-0.0967427
0.51525,-0.0913042
0.5155,-3.13E-02
0.51575,-0.0514946
0.516,-0.0424113
0.51625,-0.0217522
0.5165,-0.00771817
0.51675,0.00692854
0.517,0.0200199
0.51725,1.86E-02
0.5175,0.00709965
0.51775,3.42E-02
0.518,0.0164317
0.51825,0.0692494
0.5185,0.0428754
0.51875,0.0743843
0.519,0.100647
0.51925,0.120707
0.5195,0.122408
0.51975,0.0722803
0.52,0.0699526
0.52025,0.112239
0.5205,0.0252862
0.52075,0.0838211
0.521,0.0207344
0.52125,0.0493946
0.5215,0.00270384
0.52175,0.0431102
0.522,0.0308364
0.52225,0.0165929
0.5225,-0.0371544
0.52275,0.0650614
0.523,0.0192136
0.52325,-0.00797432
0.5235,0.0517166
0.52375,0.0111133
0.524,0.0128011
0.52425,0.0298868
0.5245,0.020919
0.52475,0.0110335
0.525,0.0151129
0.52525,0.0199588
0.5255,0.0242843
0.52575,0.0289102
0.526,0.0185876
0.52625,0.0396738
0.5265,0.010539
0.52675,-0.031548
0.527,-0.0110258
0.52725,0.0605218
0.5275,-0.00933424
0.52775,-0.0409392
0.528,-0.0457607
0.52825,0.0120931
0.5285,-0.00283863
0.52875,-0.0253803
0.529,-0.0596098
0.52925,-0.000438997
0.5295,-0.00596982
0.52975,-0.0583388
0.53,-0.081466
0.53025,-0.0403036
0.5305,-0.0562457
0.53075,-0.0063906
0.531,-0.0757913
0.53125,-0.0730575
0.5315,-0.0844869
0.53175,-0.032788
0.532,-0.0206127
0.53225,-0.0299286
0.5325,0.00526316
0.53275,-0.0192986
0.533,0.0114647
0.53325,0.0197984
0.5335,0.0358197
0.53375,0.0584409
0.534,0.0553802
0.53425,0.0773549
0.5345,0.0716942
0.53475,0.0909289
0.535,0.105906
0.53525,0.130396
0.5355,0.116824
0.53575,0.126962
0.536,0.0897437
0.53625,0.120279
0.5365,0.0669588
0.53675,0.121966
0.537,0.105775
0.53725,0.0644147
0.5375,0.0604449
0.53775,0.0279535
0.538,0.0349606
0.53825,0.0298327
0.5385,0.0275558
0.53875,0.00244571
0.539,-0.0215521
0.53925,0.0229832
0.5395,0.00897101
0.53975,0.0279757
0.54,0.0376522
0.54025,0.00574509
0.5405,0.0121668
0.54075,-0.0120931
0.541,0.0512162
0.54125,0.0276245
0.5415,0.0294242
0.54175,0.0333103
0.542,0.0299348
0.54225,0.0499485
0.5425,0.0377345
0.54275,0.0118275
0.543,0.0436579
0.54325,0.0319005
0.5435,0.0181884
0.54375,-0.0278502
0.544,0.0701604
0.54425,-0.0114732
0.5445,0.011089
0.54475,0.00447638
0.545,-0.00278788
0.54525,0.00471141
0.5455,-0.00935176
0.54575,-0.00128316
0.546,0.0139546
0.54625,-0.0679593
0.5465,-0.028436
0.54675,-0.0830702
0.547,-0.0276129
0.54725,-0.0450877
0.5475,-0.0131858
0.54775,-0.0861104
0.548,-0.0195687
0.54825,-0.0480558
0.5485,-0.0493158
0.54875,-0.0545168
0.549,-0.0081985
0.54925,0.0210636
0.5495,0.001786
0.54975,0.0148681
0.55,0.0332127
0.55025,0.0470469
0.5505,0.0600011
0.55075,0.0673295
0.551,0.0914705
0.55125,0.068391
0.5515,0.103069
0.55175,0.107045
0.552,0.143959
0.55225,0.15252
0.5525,0.0857689
0.55275,0.125654
0.553,0.13205
0.55325,0.136349
0.5535,0.114511
0.55375,0.108779
0.554,0.0960212
0.55425,0.0679977
0.5545,0.0733644
0.55475,0.0721258
0.555,0.0554348
0.55525,0.0888723
0.5555,0.0168294
0.55575,0.0322369
0.556,0.036743
0.55625,0.0739433
0.5565,0.0539675
0.55675,0.0349288
0.557,0.0524332
0.55725,0.011984
0.5575,0.0188511
0.55775,0.0325493
0.558,0.020346
0.55825,0.0330842
0.5585,0.0301904
0.55875,0.0272815
0.559,0.0412945
0.55925,0.0284893
0.5595,0.0499938
0.55975,0.0678687
0.56,0.0395539
0.56025,0.102112
0.5605,0.0844096
0.56075,-0.00477778
0.561,0.0165928
0.56125,0.0749038
0.5615,-0.0275049
0.56175,-0.0113428
0.562,0.0289383
0.56225,-0.0152242
0.5625,-0.0111289
0.56275,-5.24E-05
0.563,-0.0747502
0.56325,-0.0336347
0.5635,-0.0450593
0.56375,-0.0604713
0.564,-0.0559488
0.56425,-0.023059
0.5645,-0.0547181
0.56475,-0.00968293
0.565,-0.0309418
0.56525,-0.0405319
0.5655,-0.0452628
0.56575,-0.0177229
0.566,0.00165023
0.56625,0.0246014
0.5665,0.0161273
0.56675,0.0312684
0.567,0.0389694
0.56725,0.035676
0.5675,0.0833739
0.56775,0.0714163
0.568,0.0666692
0.56825,0.0545274
0.5685,0.106097
0.56875,0.111799
0.569,0.124222
0.56925,0.136425
0.5695,0.142224
0.56975,0.140392
0.57,0.0924694
0.57025,0.093088
0.5705,0.115593
0.57075,0.0954219
0.571,0.0195753
0.57125,0.0831357
0.5715,0.101907
0.57175,1.59E-02
0.572,0.0920788
0.57225,0.0130823
0.5725,0.0305924
0.57275,0.0102079
0.573,0.0206517
0.57325,0.0331964
0.5735,0.00166074
0.57375,0.0395817
0.574,0.0292889
0.57425,0.0341007
0.5745,0.024473
0.57475,0.0162349
0.575,0.0236399
0.57525,0.0245427
0.5755,0.0252398
0.57575,0.0445249
0.576,0.0246029
0.57625,0.0581833
0.5765,0.0236085
0.57675,0.00300416
0.577,0.00462127
0.57725,-0.0187234
0.5775,0.0564194
0.57775,0.0214501
0.578,0.0422436
0.57825,0.0045196
0.5785,-0.0119466
0.57875,-0.0254155
0.579,0.0177618
0.57925,-0.051871
0.5795,0.00326283
0.57975,-0.0719714
0.58,-0.0722946
0.58025,-0.0245521
0.5805,-0.0353655
0.58075,-0.0258797
0.581,-0.0470553
0.58125,-0.0207916
0.5815,-0.0409078
0.58175,-0.0819259
0.582,-0.00761673
0.58225,-0.0309833
0.5825,-0.0113451
0.58275,-0.0140178
0.583,-0.00214962
0.58325,0.0130966
0.5835,0.0213644
0.58375,0.0497116
0.584,0.0559033
0.58425,0.0598101
0.5845,0.0532025
0.58475,0.11281
0.585,0.101023
0.58525,0.0483186
0.5855,0.031364
0.58575,0.0809063
0.586,0.026663
0.58625,0.0622336
0.5865,0.0972521
0.58675,0.131538
0.587,0.113106
0.58725,0.0783328
0.5875,0.0649641
0.58775,0.0306395
0.588,0.0744737
0.58825,0.0558516
0.5885,0.0323259
0.58875,0.0369852
0.589,0.0613158
0.58925,0.0345698
0.5895,0.0275538
0.58975,-0.00381068
0.59,0.0583257
0.59025,-0.00292026
0.5905,0.00408327
0.59075,-0.01974
0.591,0.0113911
0.59125,0.0131154
0.5915,0.00985506
0.59175,0.0134684
0.592,0.0143213
0.59225,-0.00429459
0.5925,0.0177295
0.59275,0.0307135
0.593,0.0464985
0.59325,0.0392639
0.5935,0.0210115
0.59375,0.0560587
0.594,-0.0209974
0.59425,0.000790181
0.5945,-0.016911
0.59475,-0.0184083
0.595,-0.0331817
0.59525,-0.0158701
0.5955,-0.0600423
0.59575,-0.0345438
0.596,-0.0417894
0.59625,-0.0786567
0.5965,-0.0384001
0.59675,-0.0313789
0.597,-0.100443
0.59725,-0.0427641
0.5975,-0.0631391
0.59775,-0.0764285
0.598,-0.0818981
0.59825,-0.08629
0.5985,-0.0490692
0.59875,-0.0425189
0.599,-0.0301417
0.59925,-0.0490173
0.5995,-0.000647607
0.59975,-0.00933526
0.6,0.00360655
0.60025,0.0129263
0.6005,0.0292647
0.60075,0.0557254
0.601,0.0432693
0.60125,0.0625403
0.6015,0.102026
0.60175,0.103301
0.602,0.0935946
0.60225,0.0647018
0.6025,0.107491
0.60275,0.0671999
0.603,0.0562037
0.60325,0.1009
0.6035,0.113626
0.60375,0.0349819
0.604,0.0430579
0.60425,0.0766334
0.6045,0.0634953
0.60475,-0.0118176
0.605,0.0116096
0.60525,-0.0119062
0.6055,-0.00579948
0.60575,-0.0450842
0.606,-0.0227266
0.60625,0.0322108
0.6065,0.00861281
0.60675,-9.98E-03
0.607,-0.0187899
0.60725,-0.034107
0.6075,0.00980016
0.60775,-0.0208071
0.608,0.00715984
0.60825,-0.00072903
0.6085,-0.00227551
0.60875,0.0076493
0.609,-0.015932
0.60925,-0.00375472
0.6095,-0.0181546
0.60975,0.0243672
0.61,-0.0213022
0.61025,6.17E-05
0.6105,-0.00389618
0.61075,-0.0253202
0.611,-0.074515
0.61125,-0.027315
0.6115,0.0048843
0.61175,-0.0434523
0.612,-0.0857131
0.61225,-0.0289587
0.6125,-0.0422281
0.61275,-0.0345138
0.613,-0.0587571
0.61325,-0.0501881
0.6135,-0.0454539
0.61375,-0.0807322
0.614,-0.109141
0.61425,-0.126607
0.6145,-0.112562
0.61475,-0.0986083
0.615,-0.0592793
0.61525,-0.112198
0.6155,-0.0948152
0.61575,-0.0104102
0.616,-0.0131058
0.61625,-0.0178806
0.6165,-0.011902
0.61675,-0.00254144
0.617,0.0119946
0.61725,0.0301393
0.6175,0.0560539
0.61775,0.0469787
0.618,0.0479631
0.61825,0.0454441
0.6185,0.0402279
0.61875,0.0489725
0.619,0.088694
0.61925,0.0560717
0.6195,0.00692507
0.61975,0.0406738
0.62,0.0620346
0.62025,0.107992
0.6205,0.057026
0.62075,0.0631761
0.621,0.0857281
0.62125,0.0799193
0.6215,0.00825877
0.62175,-0.0130258
0.622,0.0660725
0.62225,0.0272711
0.6225,-0.0606226
0.62275,0.0597354
0.623,-0.0678696
0.62325,-8.11E-03
0.6235,-0.0355709
0.62375,-0.0392251
0.624,-0.0136923
0.62425,-0.015325
0.6245,0.00636124
0.62475,-0.00537287
0.625,-9.70E-03
0.62525,-0.00372953
0.6255,-0.00717648
0.62575,0.0106898
0.626,0.00168577
0.62625,-0.00410122
0.6265,-0.0229577
0.62675,0.0166559
0.627,-0.0236071
0.62725,0.0367579
0.6275,0.00497387
0.62775,0.0214591
0.628,0.0243648
0.62825,-0.0448899
0.6285,-0.0485741
0.62875,-0.0659832
0.629,-0.0905892
0.62925,-0.0260649
0.6295,-0.0970869
0.62975,-0.07279
0.63,-0.105178
0.63025,-0.0573866
0.6305,-0.0899612
0.63075,-0.0255333
0.631,-0.097237
0.63125,-0.0568447
0.6315,-0.0907889
0.63175,-0.0854975
0.632,-0.0488012
0.63225,-0.0406411
0.6325,-0.0455111
0.63275,-0.0456308
0.633,-0.0174005
0.63325,-0.0135119
0.6335,-0.00644593
0.63375,0.00739995
0.634,0.0357998
0.63425,0.0221855
0.6345,0.0818236
0.63475,0.035027
0.635,0.0295614
0.63525,0.0568074
0.6355,0.0222789
0.63575,0.102929
0.636,0.112973
0.63625,0.0767243
0.6365,0.0467036
0.63675,0.0460763
0.637,0.0133488
0.63725,0.0870537
0.6375,0.00907593
0.63775,0.0165173
0.638,-0.0174522
0.63825,0.00898338
0.6385,0.0496358
0.63875,0.0515365
0.639,0.0465566
0.63925,0.0278706
0.6395,0.00734661
0.63975,0.0104791
0.64,0.0347222
0.64025,-0.0146813
0.6405,-0.0166231
0.64075,-0.0114225
0.641,-0.0140384
0.64125,-0.0197029
0.6415,-0.011366
0.64175,-0.00923941
0.642,-0.0115851
0.64225,0.0186162
0.6425,-0.0326558
0.64275,0.0283065
0.643,0.00848913
0.64325,-0.037072
0.6435,0.0404662
0.64375,-0.0683716
0.644,-0.0637255
0.64425,-0.00233238
0.6445,0.0435109
0.64475,-0.0634966
0.645,-0.0802935
0.64525,-0.0652846
0.6455,-0.0650643
0.64575,-0.0576051
0.646,-0.1038
0.64625,-0.110255
0.6465,-0.0746835
0.64675,-0.0857151
0.647,-0.100002
0.64725,-0.126378
0.6475,-0.0593336
0.64775,-0.120637
0.648,-0.133003
0.64825,-0.13016
0.6485,-0.11189
0.64875,-0.0619794
0.649,-0.0573889
0.64925,-0.0402326
0.6495,-0.0547647
0.64975,-0.022223
0.65,-0.0107332
0.65025,-0.00271991
0.6505,0.0120312
0.65075,0.0403131
0.651,0.0629141
0.65125,0.0255968
0.6515,-0.000983052
0.65175,0.0843939
0.652,0.0269546
0.65225,0.057624
0.6525,0.0442495
0.65275,0.117796
0.653,0.0143593
0.65325,0.0746888
0.6535,0.0583268
0.65375,0.084749
0.654,0.00787024
0.65425,0.0118856
0.6545,0.0700526
0.65475,0.0583988
0.655,0.0367718
0.65525,0.0190232
0.6555,0.0384477
0.65575,0.00674688
0.656,-0.00823987
0.65625,-0.00814166
0.6565,0.00644914
0.65675,-0.0519865
0.657,-0.0205742
0.65725,0.00838298
0.6575,0.00989813
0.65775,-0.0135059
0.658,-0.0152231
0.65825,-0.00831367
0.6585,-0.00379648
0.65875,-0.0093857
0.659,-0.00722714
0.65925,-0.022271
0.6595,0.0103295
0.65975,0.0015835
0.66,-0.0328954
0.66025,0.00364648
0.6605,-0.0434775
0.66075,-0.0159091
0.661,-0.026649
0.66125,-0.0566258
0.6615,-0.0288722
0.66175,-0.0632079
0.662,-0.00939161
0.66225,-0.0628155
0.6625,-0.0135006
0.66275,-0.0149922
0.663,-0.0942328
0.66325,-0.0268465
0.6635,-0.0789749
0.66375,-0.144137
0.664,-0.0625022
0.66425,-0.107167
0.6645,-0.0918024
0.66475,-0.0754565
0.665,-0.103288
0.66525,-0.0485349
0.6655,-0.0768462
0.66575,-0.0617395
0.666,-0.051319
0.66625,-0.037731
0.6665,-0.0196904
0.66675,-0.00362094
0.667,0.0105467
0.66725,0.0348672
0.6675,0.0103896
0.66775,0.075021
0.668,0.025836
0.66825,0.0726914
0.6685,0.0973027
0.66875,0.0520188
0.669,0.0814762
0.66925,0.0353158
0.6695,0.116404
0.66975,0.0115189
0.67,0.0531041
0.67025,0.106334
0.6705,0.0351788
0.67075,0.0641598
0.671,0.0575784
0.67125,0.0700937
0.6715,0.0491251
0.67175,-0.00824557
0.672,-0.009723
0.67225,0.0451924
0.6725,-0.0212529
0.67275,0.0359301
0.673,-0.0335367
0.67325,0.00544619
0.6735,-0.0157812
0.67375,-0.0217111
0.674,-0.0258401
0.67425,0.000937604
0.6745,0.00281665
0.67475,-0.00757549
0.675,-0.00451215
0.67525,0.00498441
0.6755,0.000596897
0.67575,0.0239989
0.676,-0.002158
0.67625,0.0127508
0.6765,0.0333533
0.67675,-0.0191666
0.677,-0.0138412
0.67725,-0.0436682
0.6775,-0.0130777
0.67775,-0.0147847
0.678,-0.0135563
0.67825,-0.0414835
0.6785,-0.0246043
0.67875,-0.0205255
0.679,-0.0552819
0.67925,-0.0602672
0.6795,-0.0913989
0.67975,-0.109014
0.68,-0.0309787
0.68025,-0.0852715
0.6805,-0.0909918
0.68075,-0.0202867
0.681,-0.0457678
0.68125,-0.0570885
0.6815,-0.0704966
0.68175,-0.0580426
0.682,-0.0732374
0.68225,-0.0209032
0.6825,-0.0456937
0.68275,-0.0473886
0.683,-0.0136577
0.68325,-0.00521539
0.6835,0.00207485
0.68375,0.0234164
0.684,0.0340218
0.68425,0.0489388
0.6845,0.056177
0.68475,0.0585569
0.685,0.0902447
0.68525,0.0500329
0.6855,0.100775
0.68575,0.108423
0.686,0.118548
0.68625,0.0727126
0.6865,0.0907032
0.68675,0.0539859
0.687,0.0134535
0.68725,0.0174867
0.6875,0.0166345
0.68775,0.0591114
0.688,0.0640658
0.68825,0.0280435
0.6885,0.0634693
0.68875,-0.00914452
0.689,0.00266595
0.68925,0.0326324
0.6895,0.00571062
0.68975,-0.012228
0.69,-0.0160972
0.69025,-0.0233576
0.6905,-0.0301544
0.69075,-0.0274732
0.691,0.0163955
0.69125,-0.0159078
0.6915,-0.00312722
0.69175,0.00303694
0.692,0.0064735
0.69225,0.00657159
0.6925,0.0240765
0.69275,0.0323541
0.693,0.0117986
0.69325,0.0174285
0.6935,0.031068
0.69375,0.0215867
0.694,-0.0282281
0.69425,-0.0159912
0.6945,0.0159223
0.69475,-0.00703413
0.695,-0.0453646
0.69525,-0.0823056
0.6955,-0.0193941
0.69575,-0.0497129
0.696,-0.0363329
0.69625,-0.0830915
0.6965,-0.0729344
0.69675,-0.094277
0.697,-0.107526
0.69725,-0.0879688
0.6975,-0.0219155
0.69775,-0.0431546
0.698,-0.0435174
0.69825,-0.0563304
0.6985,-0.0471014
0.69875,-0.0650124
0.699,-0.0235703
0.69925,-0.0533206
0.6995,-0.0219509
0.69975,-0.0123522
0.7,0.00139535
0.70025,0.0222941
0.7005,0.00431904
0.70075,0.0266222
0.701,0.0223874
0.70125,0.0122594
0.7015,0.099942
0.70175,0.10447
0.702,0.0715862
0.70225,0.112191
0.7025,0.133239
0.70275,0.108603
0.703,0.0735352
0.70325,0.0819504
0.7035,0.0983737
0.70375,0.0523494
0.704,0.0675409
0.70425,0.023128
0.7045,0.0579815
0.70475,0.0577419
0.705,0.0207782
0.70525,0.0443263
0.7055,-0.0490508
0.70575,-0.0212573
0.706,-0.0386539
0.70625,-0.022525
0.7065,0.0218461
0.70675,-0.049106
0.707,-0.0526063
0.70725,0.0192587
0.7075,-0.00906452
0.70775,-0.0229148
0.708,-0.00551965
0.70825,0.00278465
0.7085,0.00450781
0.70875,0.00137938
0.709,-0.0146978
0.70925,0.00918427
0.7095,0.00704523
0.70975,0.0365414
0.71,-0.0459768
0.71025,0.0262465
0.7105,-0.00401296
0.71075,0.0417644
0.711,0.0126149
0.71125,0.0293525
0.7115,-0.059302
0.71175,0.00678752
0.712,-0.0380713
0.71225,0.00246512
0.7125,-0.0249113
0.71275,-0.0521218
0.713,-0.0728941
0.71325,-0.0439875
0.7135,-0.070305
0.71375,-0.0550339
0.714,-0.0888311
0.71425,-0.0733651
0.7145,-0.0685456
0.71475,-0.0923171
0.715,-0.0901774
0.71525,-0.0780588
0.7155,-0.0254273
0.71575,-0.0365583
0.716,-0.0376352
0.71625,-0.00802203
0.7165,-0.00226759
0.71675,0.0082376
0.717,0.028212
0.71725,0.042692
0.7175,0.0370045
0.71775,0.0293296
0.718,0.0309701
0.71825,0.0147306
0.7185,0.0460251
0.71875,0.0995502
0.719,0.0972141
0.71925,0.0473049
0.7195,0.100487
0.71975,0.11735
0.72,0.0927991
0.72025,0.0665238
0.7205,0.0380526
0.72075,0.0725479
0.721,0.0233067
0.72125,0.0071475
0.7215,-0.00374621
0.72175,0.0238549
0.722,0.0498167
0.72225,-0.0285551
0.7225,0.00413543
0.72275,0.00487575
0.723,0.0197205
0.72325,-0.0362767
0.7235,-0.0171519
0.72375,-0.0134925
0.724,0.0046394
0.72425,0.00836571
0.7245,-0.00348177
0.72475,-0.00202443
0.725,0.00326806
0.72525,0.00738951
0.7255,0.00161292
0.72575,0.0206482
0.726,-0.0192996
0.72625,0.033908
0.7265,-0.0204442
0.72675,-0.00575547
0.727,0.0234518
0.72725,-0.0115834
0.7275,0.0421022
0.72775,-0.0241715
0.728,-0.0303726
0.72825,-0.0072739
0.7285,-0.0175203
0.72875,-0.0291656
0.729,-0.0524559
0.72925,-0.0943415
0.7295,-0.0347556
0.72975,-0.0693429
0.73,-0.0360025
0.73025,-0.116253
0.7305,-0.0993061
0.73075,-0.0404495
0.731,-0.0556092
0.73125,-0.0992467
0.7315,-0.0662631
0.73175,-0.067918
0.732,-0.0637475
0.73225,-0.0296997
0.7325,-0.0351205
0.73275,-0.0394581
0.733,-0.0149004
0.73325,3.43E-05
0.7335,0.0170827
0.73375,0.0367952
0.734,0.0438924
0.73425,0.0271646
0.7345,0.0774073
0.73475,0.0210768
0.735,0.0468933
0.73525,0.0348264
0.7355,0.0917464
0.73575,0.093003
0.736,0.0659098
0.73625,0.103244
0.7365,0.0599529
0.73675,0.0664403
0.737,0.090787
0.73725,0.0251654
0.7375,0.0703204
0.73775,0.0573312
0.738,0.0527378
0.73825,0.071488
0.7385,0.0654457
0.73875,0.0509459
0.739,-0.0533153
0.73925,0.0516745
0.7395,-0.00467458
0.73975,-0.00642428
0.74,-0.0160695
0.74025,0.0157966
0.7405,-0.0224415
0.74075,0.00134959
0.741,-0.00371682
0.74125,-0.0072156
0.7415,0.0026765
0.74175,0.00110297
0.742,-0.0026722
0.74225,-0.00252168
0.7425,-0.00427191
0.74275,0.0397434
0.743,0.0118506
0.74325,0.0320391
0.7435,-0.00864224
0.74375,0.0169547
0.744,0.0424475
0.74425,-0.00414399
0.7445,0.027346
0.74475,-0.0366139
0.745,-0.0501632
0.74525,-0.0147312
0.7455,-0.0825181
0.74575,-0.0190957
0.746,-0.0680519
0.74625,-0.0753766
0.7465,-0.031898
0.74675,-0.0681702
0.747,-0.0579893
0.74725,-0.095344
0.7475,-0.0905153
0.74775,-0.0617356
0.748,-0.0562307
0.74825,-0.0745181
0.7485,-0.0524958
0.74875,-0.0252281
0.749,-0.0356946
0.74925,-0.0514682
0.7495,-0.0227265
0.74975,-0.0155923
0.75,0.00199241
0.75025,0.00969196
0.7505,0.041369
0.75075,0.06614
0.751,0.0759446
0.75125,0.0828103
0.7515,0.0951938
0.75175,0.0534076
0.752,0.0575708
0.75225,0.0709819
0.7525,0.0333765
0.75275,0.0796415
0.753,0.0281183
0.75325,0.0831625
0.7535,0.122803
0.75375,0.029256
0.754,0.0166035
0.75425,0.0500667
0.7545,-0.00303525
0.75475,0.0236379
0.755,0.0553568
0.75525,0.000584266
0.7555,0.0700819
0.75575,-0.0635709
0.756,0.0187781
0.75625,-0.0366272
0.7565,-0.00283232
0.75675,-0.0358889
0.757,0.0200071
0.75725,0.0146251
0.7575,-0.0149693
0.75775,-0.0294827
0.758,-0.00424202
0.75825,0.00064529
0.7585,0.00392827
0.75875,0.011651
0.759,-0.0160857
0.75925,0.0136725
0.7595,0.0055303
0.75975,0.024794
0.76,0.00108959
0.76025,-0.00254233
0.7605,-0.00566539
0.76075,-0.00742067
0.761,0.0504347
0.76125,-0.0137659
0.7615,0.0249364
0.76175,-0.0280857
0.762,-0.00189059
0.76225,-0.033376
0.7625,-0.0356921
0.76275,-0.042472
0.763,-0.0379986
0.76325,-0.0371836
0.7635,-0.085394
0.76375,-0.0777194
0.764,-0.0225262
0.76425,-0.10916
0.7645,-0.0506162
0.76475,-0.00431384
0.765,-0.0781713
0.76525,-0.0966387
0.7655,-0.0347302
0.76575,-0.0322289
0.766,-0.0495585
0.76625,-0.0201272
0.7665,-0.000871112
0.76675,0.00296151
0.767,0.0153968
0.76725,0.0258039
0.7675,0.0242716
0.76775,0.0534626
0.768,0.0885267
0.76825,0.0546133
0.7685,0.072128
0.76875,0.0852162
0.769,0.0456661
0.76925,0.0452375
0.7695,0.0202529
0.76975,0.0966304
0.77,0.0465318
0.77025,0.0307271
0.7705,0.0105595
0.77075,0.0132603
0.771,0.0505366
0.77125,0.0901841
0.7715,0.0530142
0.77175,0.0612692
0.772,0.00243659
0.77225,0.013304
0.7725,0.020149
0.77275,-0.00674303
0.773,0.0604189
0.77325,-0.00141216
0.7735,-0.0304088
0.77375,-0.0242902
0.774,0.0197394
0.77425,0.0186443
0.7745,-0.0146123
0.77475,3.46E-05
0.775,0.000152502
0.77525,0.00805266
0.7755,-0.00430273
0.77575,0.00841709
0.776,-0.0108401
0.77625,-0.0241177
0.7765,0.0290149
0.77675,-0.0123739
0.777,0.00518193
0.77725,-0.00812849
0.7775,-0.0147451
0.77775,-0.0655461
0.778,-0.0106564
0.77825,0.0286085
0.7785,-0.0802995
0.77875,-0.0422515
0.779,-0.0585363
0.77925,-0.0847707
0.7795,-0.0456648
0.77975,-0.102228
0.78,-0.0922358
0.78025,-0.0551787
0.7805,-0.131813
0.78075,-0.116401
0.781,-0.128503
0.78125,-0.135174
0.7815,-0.0416197
0.78175,-0.0256636
0.782,-0.0975125
0.78225,-0.0300979
0.7825,-0.0590682
0.78275,-0.0430794
0.783,-0.0225227
0.78325,-0.00217952
0.7835,0.0122343
0.78375,0.00465012
0.784,0.0124788
0.78425,0.017123
0.7845,0.0823547
0.78475,0.0530177
0.785,0.0644376
0.78525,0.0681843
0.7855,0.0671043
0.78575,9.00E-02
0.786,0.0166638
0.78625,0.141744
0.7865,0.119291
0.78675,0.079887
0.787,0.0217491
0.78725,0.0635967
0.7875,0.0457048
0.78775,0.0578299
0.788,0.0204227
0.78825,0.0127449
0.7885,0.0506017
0.78875,-0.00932082
0.789,0.0275391
0.78925,0.0452555
0.7895,0.0133058
0.78975,0.0159358
0.79,-0.0252422
0.79025,-0.0222978
0.7905,-0.0192045
0.79075,0.00835586
0.791,-0.017831
0.79125,-4.54E-03
0.7915,-0.00713213
0.79175,0.00157932
0.792,-0.00609817
0.79225,-0.00408954
0.7925,-0.00700312
0.79275,0.0437099
0.793,2.02E-02
0.79325,0.0409684
0.7935,-0.00445856
0.79375,-5.86E-04
0.794,0.0163261
0.79425,-0.0368833
0.7945,-0.0393947
0.79475,-0.0402104
0.795,-0.0077784
0.79525,0.00784679
0.7955,-0.0618256
0.79575,-0.0383345
0.796,-0.0790922
0.79625,-0.0751452
0.7965,-0.122502
0.79675,-0.130837
0.797,-0.0609841
0.79725,-0.13137
0.7975,-0.050917
0.79775,-0.0697172
0.798,-0.105233
0.79825,-0.0572596
0.7985,-0.104429
0.79875,-0.0506972
0.799,-0.0452434
0.79925,-0.0249517
0.7995,-0.0138255
0.79975,-0.0107724
0.8,-0.000685857
0.80025,0.0187229
0.8005,0.0319344
0.80075,0.0282513
0.801,0.0531461
0.80125,0.0163758
0.8015,0.0648749
0.80175,0.0626078
0.802,0.070412
0.80225,0.0269121
0.8025,0.068666
0.80275,0.0783654
0.803,0.106688
0.80325,0.0402362
0.8035,0.0904169
0.80375,0.0625049
0.804,0.0244884
0.80425,0.0287316
0.8045,0.0685557
0.80475,0.0254429
0.805,0.040092
0.80525,0.0309095
0.8055,0.0630765
0.80575,0.0480392
0.806,0.0422501
0.80625,-3.43E-03
0.8065,-1.50E-02
0.80675,-0.0296765
0.807,0.036809
0.80725,-0.00855881
0.8075,-0.0299872
0.80775,0.00489197
0.808,0.0008313
0.80825,-0.00248862
0.8085,-0.000632252
0.80875,0.00616187
0.809,0.00338326
0.80925,0.0251634
0.8095,0.0286332
0.80975,0.0195285
0.81,0.0158581
0.81025,0.00307307
0.8105,0.0246228
0.81075,-0.0190474
0.811,-0.0299702
0.81125,-1.95E-02
0.8115,-0.00949203
0.81175,-0.0538248
0.812,-0.070493
0.81225,-0.0848222
0.8125,-5.17E-02
0.81275,-0.0921361
0.813,-0.0695343
0.81325,-0.0951273
0.8135,-0.0776551
0.81375,-0.0649907
0.814,-0.132478
0.81425,-0.022386
0.8145,-0.0555118
0.81475,-0.0978751
0.815,-0.0530473
0.81525,-0.0480825
0.8155,-0.0989896
0.81575,-0.033987
0.816,-0.0373128
0.81625,-0.024577
0.8165,-0.0104198
0.81675,0.00213952
0.817,0.0202074
0.81725,0.0200763
0.8175,0.0393872
0.81775,0.058953
0.818,0.0444867
0.81825,0.0231405
0.8185,0.0223869
0.81875,0.0865541
0.819,0.105663
0.81925,0.052475
0.8195,0.0903232
0.81975,0.0839438
0.82,0.0459517
0.82025,0.0578239
0.8205,0.0752827
0.82075,0.0290768
0.821,0.0141661
0.82125,0.0668069
0.8215,0.0195565
0.82175,0.0355736
0.822,0.0367139
0.82225,0.0107225
0.8225,0.0214492
0.82275,-0.00833385
0.823,-0.0270213
0.82325,-0.00905382
0.8235,-0.0160743
0.82375,-0.000642743
0.824,-0.018182
0.82425,-0.0131365
0.8245,-0.00173175
0.82475,0.00697431
0.825,-0.000547169
0.82525,0.00143071
0.8255,0.00305218
0.82575,0.027755
0.826,-0.0274305
0.82625,0.0105294
0.8265,-0.0311877
0.82675,0.0046035
0.827,-0.00868315
0.82725,-0.0404218
0.8275,0.030567
0.82775,-0.0117544
0.828,-0.021282
0.82825,-0.0328464
0.8285,-0.00943057
0.82875,-0.0080576
0.829,-0.0248375
0.82925,-0.048387
0.8295,-0.00495371
0.82975,-0.0761938
0.83,-0.046824
0.83025,-0.100548
0.8305,-0.0777554
0.83075,-0.0827699
0.831,-0.110325
0.83125,-0.0306654
0.8315,-0.0373528
0.83175,-0.070446
0.832,-0.0254238
0.83225,-0.0579219
0.8325,-0.0497237
0.83275,-0.015954
0.833,-0.0119733
0.83325,-0.00713446
0.8335,0.00575467
0.83375,0.0161806
0.834,0.0257396
0.83425,0.04646
0.8345,0.0613329
0.83475,0.080916
0.835,0.044232
0.83525,0.0868086
0.8355,0.0631669
0.83575,0.0642132
0.836,0.0301101
0.83625,0.0515094
0.8365,0.108004
0.83675,0.0489199
0.837,0.114607
0.83725,0.0573912
0.8375,0.0959313
0.83775,0.0670571
0.838,0.0558209
0.83825,-0.0283877
0.8385,0.0231418
0.83875,-0.0119572
0.839,0.0248865
0.83925,-0.0468193
0.8395,-0.0192381
0.83975,-0.0354321
0.84,0.0412384
0.84025,-0.0190293
0.8405,-0.0399039
0.84075,-0.033621
0.841,-0.0267629
0.84125,0.00740273
0.8415,-0.00303153
0.84175,0.00227379
0.842,0.00267787
0.84225,-0.0165721
0.8425,-0.00791529
0.84275,0.0228652
0.843,0.0498392
0.84325,0.0307653
0.8435,-0.00623532
0.84375,0.000405787
0.844,0.0547412
0.84425,0.00950099
0.8445,0.000504444
0.84475,-0.0605326
0.845,-0.0871603
0.84525,0.0079265
0.8455,-0.0724008
0.84575,-0.00147431
0.846,-0.0319927
0.84625,-0.0429175
0.8465,-0.0402174
0.84675,-0.0381563
0.847,-0.0775892
0.84725,-0.0674334
0.8475,-0.129402
0.84775,-0.116479
0.848,-0.0922574
0.84825,-0.074766
0.8485,-0.0511128
0.84875,-0.0356611
0.849,-0.034657
0.84925,-0.00653047
0.8495,-0.0250747
0.84975,-0.00904929
0.85,-0.000116467
0.85025,0.0159262
0.8505,0.0115531
0.85075,0.0284169
0.851,0.0237911
0.85125,0.0542926
0.8515,0.0829212
0.85175,0.0674974
0.852,0.0463807
0.85225,0.0156953
0.8525,0.0402785
0.85275,0.0696137
0.853,0.0894855
0.85325,0.126528
0.8535,0.0961196
0.85375,0.0479197
0.854,0.0690811
0.85425,-0.00142847
0.8545,0.0126282
0.85475,-0.0093744
0.855,0.0632452
0.85525,0.0505308
0.8555,0.0215803
0.85575,0.0333361
0.856,0.0175891
0.85625,0.0436923
0.8565,-0.0106268
0.85675,-2.52E-02
0.857,-0.0285712
0.85725,-0.00287908
0.8575,-0.0215487
0.85775,-0.011494
0.858,-0.00698143
0.85825,0.00269984
0.8585,0.00277124
0.85875,0.0204157
0.859,-0.00843295
0.85925,0.0244732
0.8595,0.0188029
0.85975,0.00427594
0.86,0.0239294
0.86025,0.0590602
0.8605,0.00785542
0.86075,-0.0363494
0.861,0.0115716
0.86125,0.0438972
0.8615,-0.0568591
0.86175,-0.00691082
0.862,0.00460437
0.86225,-0.0740823
0.8625,-0.0960747
0.86275,-0.0630094
0.863,-0.0809699
0.86325,-0.0323224
0.8635,-0.0919124
0.86375,-0.0585715
0.864,-0.0651427
0.86425,-0.0883008
0.8645,-0.0935197
0.86475,-0.10421
0.865,-0.0887403
0.86525,-0.0671424
0.8655,-0.0917052
0.86575,-0.0734948
0.866,-0.0251728
0.86625,-0.0284697
0.8665,-0.0117435
0.86675,0.00719161
0.867,0.0170405
0.86725,0.0248237
0.8675,0.0369587
0.86775,0.0480716
0.868,0.0510039
0.86825,0.0500649
0.8685,0.0532581
0.86875,0.129766
0.869,0.0536876
0.86925,0.122242
0.8695,0.0442514
0.86975,0.109741
0.87,0.0508297
0.87025,0.0910807
0.8705,0.0809929
0.87075,0.0589104
0.871,0.0658807
0.87125,0.0656727
0.8715,0.00784397
0.87175,-0.0126897
0.872,6.15E-03
0.87225,0.0088253
0.8725,-0.00631783
0.87275,0.00704885
0.873,-0.0546947
0.87325,0.0251617
0.8735,-0.0264361
0.87375,-0.000233813
0.874,-0.0119401
0.87425,0.00371046
0.8745,-0.0131503
0.87475,-0.00493815
0.875,0.000145384
0.87525,-0.00103223
0.8755,0.000396657
0.87575,0.008761
0.876,0.00571213
0.87625,0.0203765
0.8765,0.0465051
0.87675,-0.00161475
0.877,-0.00346395
0.87725,-0.00197438
0.8775,-0.0326982
0.87775,-0.0413702
0.878,0.037685
0.87825,-0.0304333
0.8785,-0.0122718
0.87875,-0.06025
0.879,-0.0500413
0.87925,-0.0468444
0.8795,-0.0284595
0.87975,-0.0513606
0.88,-0.0994525
0.88025,-0.0762485
0.8805,-0.0640572
0.88075,-0.0196242
0.881,-0.104617
0.88125,-0.0517267
0.8815,-0.0449327
0.88175,-0.048658
0.882,-0.0702053
0.88225,-0.0198575
0.8825,-0.0262523
0.88275,-0.0164252
0.883,-0.0059109
0.88325,-0.00334799
0.8835,0.0106214
0.88375,0.0236198
0.884,0.0439455
0.88425,0.051002
0.8845,0.0642349
0.88475,0.0578757
0.885,0.0698592
0.88525,0.101679
0.8855,0.108718
0.88575,0.0968501
0.886,0.105335
0.88625,0.07367
0.8865,0.0847983
0.88675,0.0418115
0.887,0.0295573
0.88725,0.0144555
0.8875,0.00558568
0.88775,0.060265
0.888,0.0330668
0.88825,0.0644209
0.8885,0.00570533
0.88875,0.0732572
0.889,-0.00196268
0.88925,-0.0261385
0.8895,0.0424735
0.88975,-0.0367596
0.89,0.0341292
0.89025,-0.0251772
0.8905,0.000464066
0.89075,-0.0351986
0.891,-0.0133631
0.89125,-0.00554444
0.8915,0.00142079
0.89175,-0.0020842
0.892,-0.00418525
0.89225,0.00278138
0.8925,0.0235415
0.89275,0.0208107
0.893,0.00599502
0.89325,0.00389928
0.8935,0.0148092
0.89375,-0.0641395
0.894,0.0142906
0.89425,-0.00818068
0.8945,-0.0479297
0.89475,-0.0814959
0.895,-0.0865735
0.89525,0.00292216
0.8955,-0.0370141
0.89575,-0.0333331
0.896,-0.040183
0.89625,-0.0158472
0.8965,-0.111658
0.89675,-0.0722025
0.897,-0.0120938
0.89725,-0.10236
0.8975,-0.0750111
0.89775,-0.0808851
0.898,-0.0336717
0.89825,-0.0826063
0.8985,-0.0175852
0.89875,-0.0320334
0.899,-0.0161005
0.89925,-0.061484
0.8995,-0.0360462
0.89975,-0.0111522
0.9,9.36E-05
0.90025,0.0111567
0.9005,0.0335562
0.90075,0.0491234
0.901,0.0703137
0.90125,0.0537702
0.9015,0.0691753
0.90175,0.024248
0.902,0.110945
0.90225,0.106578
0.9025,0.13401
0.90275,0.113917
0.903,0.115297
0.90325,0.071327
0.9035,0.0814341
0.90375,0.0967777
0.904,0.0724651
0.90425,0.0670873
0.9045,0.0527201
0.90475,-0.0200608
0.905,0.017754
0.90525,-0.033265
0.9055,0.00305651
0.90575,0.00742809
0.906,-0.00616142
0.90625,-0.0390968
0.9065,0.00975116
0.90675,0.0312654
0.907,-0.0337538
0.90725,-0.0239213
0.9075,-0.0318816
0.90775,-0.0125204
0.908,-0.00197337
0.90825,0.000146354
0.9085,2.56E-03
0.90875,0.00599926
0.909,0.00688736
0.90925,0.0357674
0.9095,0.0130261
0.90975,0.0207636
0.91,0.0212925
0.91025,-0.0108888
0.9105,0.0536825
0.91075,0.0621755
0.911,-0.00299418
0.91125,0.0457857
0.9115,-0.0643003
0.91175,0.00519294
0.912,-0.0517057
0.91225,-0.0399841
0.9125,-0.0799252
0.91275,-0.0610341
0.913,-0.0626442
0.91325,-0.049681
0.9135,-0.0563385
0.91375,-0.0719276
0.914,-0.0416137
0.91425,-0.0939145
0.9145,-0.0710221
0.91475,-0.11592
0.915,-0.0499485
0.91525,-0.013257
0.9155,-0.0681188
0.91575,-0.0570981
0.916,-0.0282579
0.91625,-0.0321276
0.9165,-0.00421479
0.91675,0.000743802
0.917,2.02E-02
0.91725,0.0290948
0.9175,0.0410397
0.91775,0.0309083
0.918,0.0399853
0.91825,0.0543725
0.9185,0.0628096
0.91875,0.0381912
0.919,0.11041
0.91925,0.133124
0.9195,0.0475664
0.91975,0.115958
0.92,0.118673
0.92025,0.0908977
0.9205,0.0890889
0.92075,0.0233755
0.921,0.0358117
0.92125,0.0298195
0.9215,-0.00785156
0.92175,0.0153991
0.922,-0.00101762
0.92225,-0.0368207
0.9225,-0.0068536
0.92275,0.0458479
0.923,0.0249122
0.92325,-7.36E-03
0.9235,-0.0372174
0.92375,-0.0210724
0.924,-0.0208619
0.92425,0.00351714
0.9245,-0.000894553
0.92475,-0.00728269
0.925,-0.00027272
0.92525,0.00239366
0.9255,-0.0056224
0.92575,0.0274454
0.926,-0.0265394
0.92625,-0.0177945
0.9265,-0.0504632
0.92675,0.0161221
0.927,0.064932
0.92725,-0.0134848
0.9275,0.0246136
0.92775,0.0376425
0.928,-0.0185401
0.92825,0.024714
0.9285,-0.0395799
0.92875,-0.0672001
0.929,-0.0628274
0.92925,-0.0667007
0.9295,-0.0117397
0.92975,-0.0277798
0.93,-8.35E-02
0.93025,-0.0523681
0.9305,-0.0344772
0.93075,-0.0973159
0.931,-0.077713
0.93125,-0.0676871
0.9315,-0.0229317
0.93175,-0.0582109
0.932,-0.0281367
0.93225,-0.0584272
0.9325,-0.0704015
0.93275,-0.0343544
0.933,-0.0290686
0.93325,-0.00314862
0.9335,0.0126043
0.93375,0.0145932
0.934,0.0394592
0.93425,0.0361901
0.9345,0.0728173
0.93475,0.0754109
0.935,0.106011
0.93525,0.0698218
0.9355,0.0695671
0.93575,0.0672949
0.936,0.11016
0.93625,0.0773589
0.9365,0.0901617
0.93675,0.0498291
0.937,0.0345873
0.93725,0.0731609
0.9375,0.0215466
0.93775,-0.000727685
0.938,0.0286035
0.93825,-0.00208685
0.9385,0.0514848
0.93875,0.0102011
0.939,0.0202057
0.93925,-0.0246175
0.9395,-0.0603467
0.93975,0.0274824
0.94,-0.0012468
0.94025,-0.0321601
0.9405,0.0044242
0.94075,0.012442
0.941,-0.0185417
0.94125,-0.00970881
0.9415,-0.00354952
0.94175,-0.000726936
0.942,0.00721808
0.94225,-0.00221378
0.9425,0.0311732
0.94275,0.0312347
0.943,0.0161434
0.94325,0.0249908
0.9435,0.000453105
0.94375,0.00166626
0.944,-0.0641885
0.94425,0.0475895
0.9445,-0.00921508
0.94475,-0.0285348
0.945,0.00422177
0.94525,0.0156373
0.9455,-0.0889187
0.94575,-0.0363748
0.946,-0.0152171
0.94625,-0.0152043
0.9465,-0.0410135
0.94675,-0.0936794
0.947,-0.0969766
0.94725,-0.0380742
0.9475,-0.0583804
0.94775,-0.0431078
0.948,-0.0752928
0.94825,-0.0353324
0.9485,-0.0268957
0.94875,-0.0572447
0.949,-0.0510044
0.94925,-0.0488808
0.9495,-0.0412908
0.94975,-0.0102215
0.95,-1.33E-05
0.95025,0.00279237
0.9505,0.0176897
0.95075,0.0349002
0.951,0.0835354
0.95125,0.0579789
0.9515,0.0432992
0.95175,0.083753
0.952,0.0965867
0.95225,0.0286338
0.9525,0.0508059
0.95275,0.0443274
0.953,0.0185098
0.95325,5.58E-02
0.9535,0.0507448
0.95375,0.067216
0.954,0.0517781
0.95425,0.0262425
0.9545,0.0134489
0.95475,0.0375866
0.955,0.0541826
0.95525,0.0459512
0.9555,-0.0414025
0.95575,0.000911862
0.956,0.0596904
0.95625,-0.0068724
0.9565,-0.0177264
0.95675,-0.0098319
0.957,-0.00954702
0.95725,0.00171873
0.9575,0.00439959
0.95775,-0.0251798
0.958,0.00874093
0.95825,-0.00239961
0.9585,0.00295105
0.95875,0.000742755
0.959,0.00767748
0.95925,0.013453
0.9595,0.0306118
0.95975,2.00E-02
0.96,-0.0275848
0.96025,-0.0434229
0.9605,0.0455193
0.96075,-0.0673834
0.961,0.0458206
0.96125,-0.0563699
0.9615,-0.0355493
0.96175,-0.0714536
0.962,-0.0902694
0.96225,-0.0278382
0.9625,-0.00378681
0.96275,-0.0769187
0.963,-0.0440237
0.96325,-0.110638
0.9635,-0.0594636
0.96375,-0.0930318
0.964,-0.0606933
0.96425,-0.0690643
0.9645,-0.0228878
0.96475,-0.0938708
0.965,-0.0264577
0.96525,-0.0440495
0.9655,-7.58E-02
0.96575,-0.0426149
0.966,-0.0341691
0.96625,-0.00688553
0.9665,-0.00469952
0.96675,0.00488489
0.967,0.0180782
0.96725,0.0107525
0.9675,0.0154036
0.96775,0.0606379
0.968,0.0523607
0.96825,0.0665371
0.9685,0.112667
0.96875,0.0139182
0.969,0.14509
0.96925,0.0544145
0.9695,0.0676799
0.96975,0.112033
0.97,0.0999889
0.97025,0.022243
0.9705,0.0250817
0.97075,0.0454979
0.971,0.0849519
0.97125,0.0875477
0.9715,0.00292323
0.97175,0.023548
0.972,0.0234128
0.97225,0.0566009
0.9725,0.0108484
0.97275,-0.0302418
0.973,0.00140892
0.97325,-0.0306797
0.9735,-0.0497797
0.97375,0.00756654
0.974,0.0205956
0.97425,-0.00499058
0.9745,-0.00160881
0.97475,-0.00160328
0.975,0.00528713
0.97525,0.0103702
0.9755,0.019106
0.97575,0.0145597
0.976,0.00235626
0.97625,0.0134061
0.9765,0.0329059
0.97675,0.0153964
0.977,0.045587
0.97725,-0.0188788
0.9775,-0.0104583
0.97775,0.00217382
0.978,-0.0540912
0.97825,0.0391252
0.9785,-0.0521088
0.97875,0.0221608
0.979,-0.0739767
0.97925,-0.073722
0.9795,0.000927254
0.97975,-0.0946149
0.98,-0.0667994
0.98025,-0.0824442
0.9805,-0.108295
0.98075,-0.0681842
0.981,-0.116735
0.98125,-0.0642724
0.9815,-0.0314931
0.98175,-0.0972749
0.982,-0.0668379
0.98225,-0.0203579
0.9825,-0.0222584
0.98275,-0.0116959
0.983,-0.0178971
0.98325,0.00637509
0.9835,0.01257
0.98375,0.032295
0.984,0.0603842
0.98425,0.0306193
0.9845,0.0896238
0.98475,0.0529879
0.985,0.124006
0.98525,0.126301
0.9855,0.111784
0.98575,0.101645
0.986,0.106336
0.98625,0.0566466
0.9865,0.0890682
0.98675,0.0731609
0.987,0.0582155
0.98725,0.0362541
0.9875,0.0553123
0.98775,0.00756679
0.988,0.0805547
0.98825,0.0612042
0.9885,0.0386666
0.98875,0.0272903
0.989,0.0118243
0.98925,0.026852
0.9895,0.0268138
0.98975,0.0236498
0.99,-0.00289744
0.99025,0.0135665
0.9905,0.0167645
0.99075,-0.0218132
0.991,0.0179934
0.99125,0.00136349
0.9915,0.0135938
0.99175,0.0189147
0.992,0.0233985
0.99225,0.020369
0.9925,0.00822857
0.99275,0.0289326
0.993,-0.0186962
0.99325,7.32E-02
0.9935,0.0621124
0.99375,0.0838535
0.994,0.0431583
0.99425,0.0329586
0.9945,0.00257535
0.99475,0.0183028
0.995,-0.0218288
0.99525,5.27E-03
0.9955,0.0133665
0.99575,-0.0492188
0.996,-0.00891132
0.99625,-0.0588668
0.9965,-0.0440789
0.99675,-0.0935388
0.997,-0.0752416
0.99725,-0.0501302
0.9975,-0.0869702
0.99775,-0.0422447
0.998,-0.00786378
0.99825,0.00105246
0.9985,-0.0524713
0.99875,-0.0503621
0.999,0.0128286
0.99925,-0.0182268
0.9995,-9.01E-03
0.99975,0.018231
1,0.0266701
1.00025,0.0475178
1.0005,0.048631
1.00075,0.0602974
1.001,0.0874796
1.00125,0.107014
1.0015,0.121526
1.00175,0.0822224
1.002,0.118884
1.00225,0.108903
1.0025,0.156136
1.00275,0.149786
1.003,0.0803971
1.00325,0.0785672
1.0035,9.43E-02
1.00375,0.0779779
1.004,0.114288
1.00425,0.0882357
1.0045,0.0926003
1.00475,0.0094432
1.005,0.0502701
1.00525,0.0378101
1.0055,0.0631177
1.00575,0.061465
1.006,0.0280228
1.00625,0.0198061
1.0065,0.0495448
1.00675,0.0806775
1.007,0.00887966
1.00725,0.04607
1.0075,0.0553038
1.00775,0.0104876
1.008,0.0425265
1.00825,0.0363572
1.0085,0.0456629
1.00875,0.0487742
1.009,0.0621539
1.00925,0.0411722
1.0095,0.0674977
1.00975,0.104633
1.01,0.100908
1.01025,0.0404426
1.0105,0.0531544
1.01075,0.0487002
1.011,0.02911
1.01125,0.0116585
1.0115,0.0677975
1.01175,0.0553857
1.012,0.0560996
1.01225,0.00743899
1.0125,-0.00883317
1.01275,-0.0404358
1.013,0.0111084
1.01325,-0.0551612
1.0135,-0.0601457
1.01375,-0.0791103
1.014,0.0312831
1.01425,-0.0268689
1.0145,-0.0175725
1.01475,-0.0510571
1.015,-0.0403592
1.01525,0.0253377
1.0155,0.0178551
1.01575,0.0380034
1.016,0.036547
1.01625,0.0389435
1.0165,0.0495475
1.01675,0.0640079
1.017,0.078454
1.01725,0.0878449
1.0175,0.0729547
1.01775,0.108544
1.018,0.0946316
1.01825,0.116184
1.0185,0.175936
1.01875,0.151107
1.019,0.144793
1.01925,0.134103
1.0195,0.156252
1.01975,0.148105
1.02,0.15522
1.02025,0.0908287
1.0205,0.104597
1.02075,0.0862082
1.021,0.0881122
1.02125,0.127374
1.0215,0.139924
1.02175,0.0503282
1.022,0.0623313
1.02225,0.102135
1.0225,0.0668433
1.02275,0.0310877
1.023,0.0617806
1.02325,0.0811643
1.0235,0.0804312
1.02375,0.0612317
1.024,0.0468955
1.02425,0.0905247
1.0245,0.0592909
1.02475,0.080989
1.025,0.0819109
1.02525,0.0841213
1.0255,0.107015
1.02575,0.113719
1.026,0.111085
1.02625,0.135029
1.0265,0.109331
1.02675,0.0834966
1.027,0.138019
1.02725,0.125542
1.0275,0.0216763
1.02775,0.117273
1.028,0.0849597
1.02825,0.0716165
1.0285,0.111139
1.02875,0.0515478
1.029,0.045864
1.02925,0.0430532
1.0295,0.0353958
1.02975,-0.000454856
1.03,0.051553
1.03025,0.0618025
1.0305,0.0892953
1.03075,0.0211217
1.031,0.0683229
1.03125,-0.00579791
1.0315,0.0901965
1.03175,0.0894833
1.032,0.0606035
1.03225,0.0750902
1.0325,0.0779784
1.03275,0.0975766
1.033,0.0862352
1.03325,0.103739
1.0335,0.121179
1.03375,0.132678
1.034,0.149973
1.03425,0.172298
1.0345,0.122889
1.03475,0.158385
1.035,0.202044
1.03525,0.148835
1.0355,0.145684
1.03575,0.194315
1.036,0.204265
1.03625,0.253471
1.0365,0.226838
1.03675,0.226512
1.037,0.224796
1.03725,0.232578
1.0375,0.219448
1.03775,0.192542
1.038,0.156302
1.03825,0.15833
1.0385,0.152472
1.03875,0.173441
1.039,0.174617
1.03925,0.125177
1.0395,0.117188
1.03975,0.146337
1.04,0.158305
1.04025,0.176261
1.0405,0.123226
1.04075,0.130788
1.041,0.148965
1.04125,0.144447
1.0415,0.148566
1.04175,0.145399
1.042,0.160943
1.04225,0.159015
1.0425,0.172237
1.04275,0.168595
1.043,0.140616
1.04325,0.182609
1.0435,0.165218
1.04375,0.216758
1.044,0.139441
1.04425,0.146839
1.0445,0.168514
1.04475,0.128164
1.045,0.195703
1.04525,0.159353
1.0455,0.131612
1.04575,0.152294
1.046,0.146613
1.04625,0.0729504
1.0465,0.107207
1.04675,0.118474
1.047,0.0856566
1.04725,0.104468
1.0475,0.141143
1.04775,0.081941
1.048,0.13158
1.04825,0.0959233
1.0485,0.0994758
1.04875,0.15227
1.049,0.138768
1.04925,0.164428
1.0495,0.141331
1.04975,0.185601
1.05,0.188177
1.05025,0.209304
1.0505,0.213743
1.05075,0.210145
1.051,0.265142
1.05125,0.263799
1.0515,0.224713
1.05175,0.244637
1.052,0.313244
1.05225,0.288792
1.0525,0.294144
1.05275,0.294827
1.053,0.283412
1.05325,0.251597
1.0535,0.228823
1.05375,0.232902
1.054,0.260697
1.05425,0.266564
1.0545,0.245898
1.05475,0.245749
1.055,0.196099
1.05525,0.204706
1.0555,0.23415
1.05575,0.227298
1.056,0.237384
1.05625,0.227057
1.0565,0.267079
1.05675,0.202969
1.057,0.215311
1.05725,0.239013
1.0575,0.253483
1.05775,0.23053
1.058,0.228184
1.05825,0.235485
1.0585,0.244082
1.05875,0.238774
1.059,0.257194
1.05925,0.224717
1.0595,0.206016
1.05975,0.223501
1.06,0.222746
1.06025,0.231267
1.0605,0.237969
1.06075,0.238131
1.061,0.226284
1.06125,0.198323
1.0615,0.24631
1.06175,0.182075
1.062,0.21759
1.06225,0.229452
1.0625,0.168038
1.06275,0.165977
1.063,0.191518
1.06325,0.179149
1.0635,0.178031
1.06375,0.224046
1.064,0.195793
1.06425,0.201316
1.0645,0.225918
1.06475,0.170334
1.065,0.209804
1.06525,0.195686
1.0655,0.204705
1.06575,0.22214
1.066,0.248404
1.06625,0.254057
1.0665,0.276603
1.06675,0.295196
1.067,0.306456
1.06725,0.306352
1.0675,0.317633
1.06775,0.322849
1.068,0.365747
1.06825,0.364866
1.0685,0.310096
1.06875,0.435565
1.069,0.423399
1.06925,0.373065
1.0695,0.404749
1.06975,0.348386
1.07,0.417312
1.07025,0.34848
1.0705,0.408967
1.07075,0.337313
1.071,0.326368
1.07125,0.392738
1.0715,0.334973
1.07175,0.328359
1.072,0.353305
1.07225,0.322468
1.0725,0.365248
1.07275,0.338374
1.073,0.284757
1.07325,0.311629
1.0735,0.290501
1.07375,0.304688
1.074,0.355162
1.07425,0.35541
1.0745,0.343827
1.07475,0.345924
1.075,0.346714
1.07525,0.348003
1.0755,0.351917
1.07575,0.39007
1.076,0.325476
1.07625,0.392554
1.0765,0.379828
1.07675,0.3572
1.077,0.366408
1.07725,0.430922
1.0775,0.330872
1.07775,0.327945
1.078,0.376157
1.07825,0.400044
1.0785,0.311236
1.07875,0.303025
1.079,0.286496
1.07925,0.312511
1.0795,0.316031
1.07975,0.276015
1.08,0.310948
1.08025,0.31708
1.0805,0.282035
1.08075,0.260099
1.081,0.336371
1.08125,0.311563
1.0815,0.300589
1.08175,0.339122
1.082,0.360368
1.08225,0.351025
1.0825,0.36922
1.08275,0.366818
1.083,0.37925
1.08325,0.402883
1.0835,0.411468
1.08375,0.42919
1.084,0.424952
1.08425,0.459837
1.0845,0.448345
1.08475,0.452617
1.085,0.481931
1.08525,0.46268
1.0855,0.441409
1.08575,0.506093
1.086,0.534683
1.08625,0.549164
1.0865,0.509845
1.08675,0.459367
1.087,0.512759
1.08725,0.45741
1.0875,0.444128
1.08775,0.500579
1.088,0.463396
1.08825,0.480462
1.0885,0.438062
1.08875,0.448646
1.089,0.428777
1.08925,0.45191
1.0895,0.491064
1.08975,0.498736
1.09,0.485564
1.09025,0.485908
1.0905,0.43554
1.09075,0.472517
1.091,0.433563
1.09125,0.462642
1.0915,0.460636
1.09175,0.471259
1.092,0.483699
1.09225,0.498575
1.0925,0.505549
1.09275,0.512285
1.093,0.489353
1.09325,0.477281
1.0935,0.449503
1.09375,0.499821
1.094,0.50773
1.09425,0.538251
1.0945,0.484599
1.09475,0.443785
1.095,0.439625
1.09525,0.4522
1.0955,0.447725
1.09575,0.413747
1.096,0.485971
1.09625,0.464216
1.0965,0.487383
1.09675,0.409951
1.097,0.461207
1.09725,0.391622
1.0975,0.422506
1.09775,0.438747
1.098,0.420056
1.09825,0.465598
1.0985,0.448012
1.09875,0.48725
1.099,0.503223
1.09925,0.507486
1.0995,0.492845
1.09975,0.5085
1.1,0.527201
1.10025,0.536325
1.1005,0.574212
1.10075,0.555673
1.101,0.554511
1.10125,0.61388
1.1015,0.580903
1.10175,0.615449
1.102,0.670837
1.10225,0.588757
1.1025,0.638325
1.10275,0.642911
1.103,0.612012
1.10325,0.658882
1.1035,0.603175
1.10375,0.658048
1.104,0.57289
1.10425,0.566224
1.1045,0.605515
1.10475,0.578062
1.105,0.605616
1.10525,0.54049
1.1055,0.637996
1.10575,0.585717
1.106,0.505485
1.10625,0.544545
1.1065,0.523456
1.10675,0.537738
1.107,0.545888
1.10725,0.591511
1.1075,0.55151
1.10775,0.584703
1.108,0.569013
1.10825,0.577356
1.1085,0.579516
1.10875,0.577409
1.109,0.569575
1.10925,0.592687
1.1095,0.587952
1.10975,0.622879
1.11,0.584161
1.11025,0.573006
1.1105,0.647704
1.11075,0.599278
1.111,0.615361
1.11125,0.604422
1.1115,0.555368
1.11175,0.616607
1.112,0.560504
1.11225,0.593095
1.1125,0.549933
1.11275,0.503091
1.113,0.551211
1.11325,0.579003
1.1135,0.527
1.11375,0.520765
1.114,0.569438
1.11425,0.566069
1.1145,0.567826
1.11475,0.570976
1.115,0.514008
1.11525,0.605105
1.1155,0.551032
1.11575,0.573563
1.116,0.585315
1.11625,0.614558
1.1165,0.627428
1.11675,0.631931
1.117,0.637858
1.11725,0.664287
1.1175,0.670929
1.11775,0.680871
1.118,0.691151
1.11825,0.728929
1.1185,0.703348
1.11875,0.697621
1.119,0.729635
1.11925,0.700006
1.1195,0.722031
1.11975,0.659656
1.12,0.709367
1.12025,0.668505
1.1205,0.758228
1.12075,0.691741
1.121,0.678894
1.12125,0.689349
1.1215,0.691899
1.12175,0.655772
1.122,0.695263
1.12225,0.700799
1.1225,0.672668
1.12275,0.652985
1.123,0.632126
1.12325,0.621417
1.1235,0.646949
1.12375,0.637428
1.124,0.67748
1.12425,0.646347
1.1245,0.682211
1.12475,0.670472
1.125,0.665918
1.12525,0.667986
1.1255,0.670168
1.12575,0.697451
1.126,0.699467
1.12625,0.675242
1.1265,0.687978
1.12675,0.665221
1.127,0.728331
1.12725,0.681853
1.1275,0.612936
1.12775,0.638127
1.128,0.619981
1.12825,0.653654
1.1285,0.606904
1.12875,0.6015
1.129,0.633579
1.12925,0.654003
1.1295,0.660003
1.12975,0.610221
1.13,0.633058
1.13025,0.613559
1.1305,0.589728
1.13075,0.600593
1.131,0.606972
1.13125,5.99E-01
1.1315,0.629046
1.13175,0.582649
1.132,0.634467
1.13225,0.665217
1.1325,0.674726
1.13275,0.66689
1.133,0.676571
1.13325,0.685181
1.1335,0.700217
1.13375,0.699244
1.134,0.720956
1.13425,0.739236
1.1345,0.768852
1.13475,0.736432
1.135,0.72965
1.13525,0.783561
1.1355,0.750558
1.13575,0.768695
1.136,0.720866
1.13625,0.800795
1.1365,0.738086
1.13675,0.718942
1.137,0.776714
1.13725,0.801865
1.1375,0.74829
1.13775,0.75048
1.138,0.725359
1.13825,0.749463
1.1385,0.648465
1.13875,0.754506
1.139,0.65108
1.13925,0.71533
1.1395,0.754168
1.13975,0.685097
1.14,0.670451
1.14025,0.701817
1.1405,0.714468
1.14075,0.667698
1.141,0.711051
1.14125,0.696805
1.1415,0.694922
1.14175,0.694841
1.142,0.700704
1.14225,0.710802
1.1425,0.688457
1.14275,0.66895
1.143,0.733139
1.14325,0.739697
1.1435,0.75446
1.14375,0.734331
1.144,0.740448
1.14425,0.66798
1.1445,0.660346
1.14475,0.660368
1.145,0.687376
1.14525,0.659565
1.1455,0.652925
1.14575,0.66108
1.146,0.670859
1.14625,0.605758
1.1465,0.628425
1.14675,0.597702
1.147,0.642496
1.14725,0.622722
1.1475,0.55584
1.14775,0.631723
1.148,0.644549
1.14825,0.600629
1.1485,0.628093
1.14875,0.632704
1.149,0.639465
1.14925,0.64109
1.1495,0.660179
1.14975,0.687117
1.15,0.688459
1.15025,0.697062
1.1505,0.711577
1.15075,0.712394
1.151,0.727809
1.15125,0.752277
1.1515,0.753632
1.15175,0.70567
1.152,0.777638
1.15225,0.73477
1.1525,0.752024
1.15275,0.722876
1.153,0.755585
1.15325,0.794779
1.1535,0.746503
1.15375,0.6951
1.154,0.725606
1.15425,0.684046
1.1545,0.66051
1.15475,0.719158
1.155,0.671482
1.15525,0.754965
1.1555,0.664979
1.15575,0.705499
1.156,0.661708
1.15625,0.717738
1.1565,0.665165
1.15675,0.641811
1.157,0.660413
1.15725,0.652435
1.1575,0.648653
1.15775,0.648762
1.158,0.661143
1.15825,0.659875
1.1585,0.668153
1.15875,0.659987
1.159,0.680937
1.15925,0.655799
1.1595,0.68667
1.15975,0.673513
1.16,0.653442
1.16025,0.666821
1.1605,0.662454
1.16075,0.627652
1.161,0.617026
1.16125,0.676053
1.1615,0.653289
1.16175,0.594267
1.162,0.656717
1.16225,0.637126
1.1625,0.588351
1.16275,0.549729
1.163,0.580547
1.16325,0.578685
1.1635,0.610862
1.16375,0.525577
1.164,0.558794
1.16425,0.568599
1.1645,0.508351
1.16475,0.586574
1.165,0.54171
1.16525,0.556065
1.1655,0.576758
1.16575,0.549786
1.166,0.605512
1.16625,0.590209
1.1665,0.609801
1.16675,0.620154
1.167,0.628594
1.16725,0.638618
1.1675,0.645752
1.16775,0.68193
1.168,0.66518
1.16825,0.678409
1.1685,0.678485
1.16875,0.703261
1.169,0.661469
1.16925,0.685185
1.1695,0.708239
1.16975,0.66964
1.17,0.68656
1.17025,0.666132
1.1705,0.618356
1.17075,0.659296
1.171,0.592294
1.17125,0.612527
1.1715,0.616423
1.17175,0.573818
1.172,0.65645
1.17225,0.572826
1.1725,0.563036
1.17275,0.594887
1.173,0.521018
1.17325,0.568005
1.1735,0.548319
1.17375,0.521508
1.174,0.551295
1.17425,0.545385
1.1745,0.55413
1.17475,0.559934
1.175,0.551763
1.17525,0.55533
1.1755,0.536169
1.17575,0.574028
1.176,0.56001
1.17625,0.527071
1.1765,0.531575
1.17675,0.51824
1.177,0.519302
1.17725,0.550389
1.1775,0.560808
1.17775,0.525031
1.178,0.496591
1.17825,0.438002
1.1785,0.473057
1.17875,0.484257
1.179,0.435891
1.17925,0.430906
1.1795,0.465044
1.17975,0.481833
1.18,0.494963
1.18025,0.370573
1.1805,0.38774
1.18075,0.436005
1.181,0.406388
1.18125,0.409153
1.1815,0.41079
1.18175,0.435454
1.182,0.396284
1.18225,0.439077
1.1825,0.424254
1.18275,0.4424
1.183,0.470872
1.18325,0.470606
1.1835,0.474859
1.18375,0.475725
1.184,0.480204
1.18425,0.522487
1.1845,0.527209
1.18475,0.49207
1.185,0.463102
1.18525,0.51683
1.1855,0.489356
1.18575,0.522649
1.186,0.53684
1.18625,0.521095
1.1865,0.514021
1.18675,0.504478
1.187,0.498875
1.18725,0.454057
1.1875,0.493265
1.18775,0.495295
1.188,0.468437
1.18825,0.479046
1.1885,0.447107
1.18875,0.422895
1.189,0.380999
1.18925,0.369065
1.1895,0.403258
1.18975,0.399306
1.19,0.402822
1.19025,0.395427
1.1905,0.360925
1.19075,0.39656
1.191,0.369676
1.19125,0.387205
1.1915,0.375491
1.19175,0.38222
1.192,0.370792
1.19225,0.378292
1.1925,0.359353
1.19275,0.343071
1.193,0.356776
1.19325,0.36272
1.1935,0.394614
1.19375,0.333194
1.194,0.416983
1.19425,0.353153
1.1945,0.332779
1.19475,0.365222
1.195,0.302464
1.19525,0.353318
1.1955,0.265991
1.19575,0.283691
1.196,0.302034
1.19625,0.30965
1.1965,0.294798
1.19675,0.230627
1.197,0.25506
1.19725,0.260839
1.1975,0.230148
1.19775,0.281959
1.198,0.253909
1.19825,0.277359
1.1985,0.268555
1.19875,0.239587
1.199,0.282299
1.19925,0.2728
1.1995,0.270851
1.19975,0.263496
1.2,0.281172
1.20025,0.284612
1.2005,0.317429
1.20075,0.308113
1.201,0.301811
1.20125,0.30198
1.2015,0.352518
1.20175,0.385841
1.202,0.360004
1.20225,0.286372
1.2025,0.328676
1.20275,0.315047
1.203,0.303306
1.20325,0.271695
1.2035,0.254539
1.20375,0.298187
1.204,0.310217
1.20425,0.225893
1.2045,0.288644
1.20475,0.238017
1.205,0.198287
1.20525,0.249606
1.2055,0.170974
1.20575,0.249545
1.206,0.189466
1.20625,0.224862
1.2065,0.15035
1.20675,0.16188
1.207,0.13471
1.20725,0.169174
1.2075,0.204527
1.20775,0.156113
1.208,0.172338
1.20825,0.175591
1.2085,0.170417
1.20875,0.184063
1.209,0.152089
1.20925,0.176358
1.2095,0.147881
1.20975,0.1606
1.21,0.182536
1.21025,0.155203
1.2105,0.173679
1.21075,0.124811
1.211,0.0978052
1.21125,0.0856107
1.2115,0.0543295
1.21175,0.0878954
1.212,0.135271
1.21225,0.0831199
1.2125,0.115439
1.21275,0.0300335
1.213,0.0174437
1.21325,0.0566971
1.2135,0.0235693
1.21375,0.057765
1.214,0.0183084
1.21425,0.0710718
1.2145,0.0231226
1.21475,0.0732727
1.215,0.0634417
1.21525,0.0271846
1.2155,0.00862002
1.21575,0.0491355
1.216,0.0403084
1.21625,0.0604522
1.2165,0.0692611
1.21675,0.076796
1.217,0.0815226
1.21725,0.0858342
1.2175,0.0991565
1.21775,0.0855468
1.218,0.0629085
1.21825,0.0731132
1.2185,0.112607
1.21875,0.0774585
1.219,0.0823413
1.21925,0.0775044
1.2195,0.169841
1.21975,0.0951212
1.22,0.0876494
1.22025,0.0732747
1.2205,0.060946
1.22075,0.110956
1.221,0.0971113
1.22125,0.0563898
1.2215,0.0915847
1.22175,0.0667872
1.222,0.0113857
1.22225,-0.0500313
1.2225,0.0373583
1.22275,0.0173486
1.223,-0.0032637
1.22325,-0.0126509
1.2235,-0.0188144
1.22375,-0.0253606
1.224,0.00215378
1.22425,-0.0501135
1.2245,-0.0168449
1.22475,-0.0302132
1.225,-0.0271664
1.22525,-0.0277203
1.2255,-0.0335592
1.22575,-0.0101931
1.226,-0.0286389
1.22625,-0.0490697
1.2265,-0.069528
1.22675,-0.100964
1.227,-0.0614015
1.22725,-0.0787879
1.2275,-0.0388739
1.22775,-0.112818
1.228,-0.0548951
1.22825,-0.0914151
1.2285,-0.039488
1.22875,-0.0943815
1.229,-0.0834498
1.22925,-0.142984
1.2295,-0.094152
1.22975,-0.0974861
1.23,-0.188287
1.23025,-0.148474
1.2305,-0.207572
1.23075,-0.198277
1.231,-0.196788
1.23125,-0.155464
1.2315,-0.164072
1.23175,-0.13904
1.232,-0.160606
1.23225,-0.140389
1.2325,-0.162743
1.23275,-0.137601
1.233,-0.137755
1.23325,-1.18E-01
1.2335,-0.108508
1.23375,-0.105993
1.234,-0.0844328
1.23425,-0.0771732
1.2345,-0.0823069
1.23475,-0.094113
1.235,-0.08444
1.23525,-0.0214887
1.2355,-0.0863992
1.23575,-0.106454
1.236,-0.0663183
1.23625,-0.0244987
1.2365,-0.0711999
1.23675,-0.0234765
1.237,-0.135413
1.23725,-0.141216
1.2375,-0.0747931
1.23775,-0.0639089
1.238,-0.122889
1.23825,-0.109308
1.2385,-0.177404
1.23875,-0.182841
1.239,-0.21519
1.23925,-0.204537
1.2395,-0.150952
1.23975,-0.146232
1.24,-0.178968
1.24025,-0.168638
1.2405,-0.205882
1.24075,-0.184659
1.241,-0.179111
1.24125,-0.189879
1.2415,-0.188516
1.24175,-0.192758
1.242,-0.201066
1.24225,-0.174418
1.2425,-0.204345
1.24275,-1.96E-01
1.243,-0.202698
1.24325,-0.213454
1.2435,-0.173882
1.24375,-0.212534
1.244,-0.194789
1.24425,-0.197347
1.2445,-0.217102
1.24475,-0.229584
1.245,-0.23518
1.24525,-0.292696
1.2455,-0.250636
1.24575,-0.28689
1.246,-0.235175
1.24625,-0.333424
1.2465,-0.253222
1.24675,-0.303579
1.247,-0.344319
1.24725,-0.281924
1.2475,-0.300418
1.24775,-0.34646
1.248,-0.298008
1.24825,-0.342264
1.2485,-0.292757
1.24875,-0.307981
1.249,-0.283554
1.24925,-0.258007
1.2495,-0.258285
1.24975,-0.266267
1.25,-0.249846
1.25025,-0.232195
1.2505,-0.232097
1.25075,-0.206709
1.251,-0.223585
1.25125,-0.189342
1.2515,-0.202636
1.25175,-0.181166
1.252,-0.205312
1.25225,-0.174228
1.2525,-0.22416
1.25275,-0.247557
1.253,-0.146257
1.25325,-0.138941
1.2535,-0.195134
1.25375,-0.245727
1.254,-0.16805
1.25425,-0.224838
1.2545,-0.220603
1.25475,-0.262068
1.255,-0.259487
1.25525,-0.23341
1.2555,-0.264185
1.25575,-0.26565
1.256,-0.278785
1.25625,-0.22267
1.2565,-0.305163
1.25675,-0.330832
1.257,-0.313922
1.25725,-0.309505
1.2575,-0.276286
1.25775,-0.271285
1.258,-0.287555
1.25825,-0.29137
1.2585,-0.287198
1.25875,-0.292133
1.259,-0.291738
1.25925,-0.258764
1.2595,-0.261561
1.25975,-0.274204
1.26,-0.348594
1.26025,-0.305909
1.2605,-0.264056
1.26075,-0.293132
1.261,-0.292978
1.26125,-0.34235
1.2615,-0.336617
1.26175,-0.300252
1.262,-0.336449
1.26225,-0.34398
1.2625,-0.367447
1.26275,-0.381987
1.263,-0.390429
1.26325,-0.346689
1.2635,-0.411274
1.26375,-0.351876
1.264,-0.322207
1.26425,-0.386653
1.2645,-0.373682
1.26475,-0.324131
1.265,-0.365847
1.26525,-0.344674
1.2655,-0.319301
1.26575,-0.364977
1.266,-0.347238
1.26625,-0.332589
1.2665,-0.318852
1.26675,-0.304319
1.267,-0.282004
1.26725,-0.281359
1.2675,-0.258786
1.26775,-0.241445
1.268,-0.26345
1.26825,-0.271541
1.2685,-0.278868
1.26875,-0.197555
1.269,-0.224429
1.26925,-0.204997
1.2695,-0.188932
1.26975,-0.217976
1.27,-0.225391
1.27025,-0.216295
1.2705,-0.251812
1.27075,-0.250606
1.271,-0.270778
1.27125,-0.262629
1.2715,-0.23929
1.27175,-0.242192
1.272,-0.326584
1.27225,-0.302724
1.2725,-0.241859
1.27275,-0.338644
1.273,-0.245573
1.27325,-0.294392
1.2735,-0.290751
1.27375,-0.319824
1.274,-0.333879
1.27425,-0.311579
1.2745,-0.312791
1.27475,-0.308518
1.275,-0.304079
1.27525,-0.310225
1.2755,-0.283935
1.27575,-0.289343
1.276,-0.320695
1.27625,-0.318589
1.2765,-0.250921
1.27675,-0.263221
1.277,-0.320695
1.27725,-0.31111
1.2775,-0.337041
1.27775,-0.287145
1.278,-0.322606
1.27825,-0.257796
1.2785,-0.357587
1.27875,-0.378331
1.279,-0.330245
1.27925,-0.336856
1.2795,-0.37239
1.27975,-0.351558
1.28,-0.385731
1.28025,-0.379106
1.2805,-0.405325
1.28075,-0.333806
1.281,-0.392106
1.28125,-0.349945
1.2815,-0.342731
1.28175,-0.3315
1.282,-0.331874
1.28225,-0.301547
1.2825,-0.295659
1.28275,-0.302699
1.283,-0.308179
1.28325,-0.285944
1.2835,-0.27395
1.28375,-0.257877
1.284,-0.236122
1.28425,-0.251152
1.2845,-0.266176
1.28475,-0.204509
1.285,-0.213065
1.28525,-0.183785
1.2855,-0.232926
1.28575,-0.222949
1.286,-0.126595
1.28625,-0.158931
1.2865,-0.220542
1.28675,-0.201982
1.287,-0.20105
1.28725,-0.234382
1.2875,-0.212965
1.28775,-0.22203
1.288,-0.25625
1.28825,-0.214993
1.2885,-0.263222
1.28875,-0.245851
1.289,-0.288817
1.28925,-0.270926
1.2895,-0.233357
1.28975,-0.239754
1.29,-0.25554
1.29025,-0.229206
1.2905,-0.253081
1.29075,-0.263384
1.291,-0.261408
1.29125,-0.241988
1.2915,-0.247405
1.29175,-0.24648
1.292,-0.238109
1.29225,-0.224157
1.2925,-0.215934
1.29275,-0.235954
1.293,-0.247691
1.29325,-0.251401
1.2935,-0.247946
1.29375,-0.18439
1.294,-0.226213
1.29425,-0.251551
1.2945,-0.268511
1.29475,-0.243412
1.295,-0.193787
1.29525,-0.241394
1.2955,-0.276059
1.29575,-0.302156
1.296,-0.25663
1.29625,-0.300983
1.2965,-0.319621
1.29675,-0.299241
1.297,-0.32016
1.29725,-0.238808
1.2975,-0.332581
1.29775,-0.300733
1.298,-0.249731
1.29825,-0.320898
1.2985,-0.277148
1.29875,-0.273583
1.299,-0.237935
1.29925,-0.227095
1.2995,-0.223764
1.29975,-0.204759
1.3,-0.195946
1.30025,-0.177765
1.3005,-0.153911
1.30075,-0.186705
1.301,-0.141596
1.30125,-0.130933
1.3015,-0.122557
1.30175,-0.130526
1.302,-0.0802964
1.30225,-0.081321
1.3025,-0.148981
1.30275,-0.0868653
1.303,-0.145173
1.30325,-0.061346
1.3035,-9.55E-02
1.30375,-0.0822519
1.304,-0.142552
1.30425,-0.112604
1.3045,-0.164859
1.30475,-0.135197
1.305,-0.112867
1.30525,-0.114124
1.3055,-0.131394
1.30575,-0.159078
1.306,-0.203447
1.30625,-0.125196
1.3065,-0.14794
1.30675,-0.133229
1.307,-0.181145
1.30725,-0.140984
1.3075,-0.140697
1.30775,-0.160802
1.308,-0.141161
1.30825,-0.137814
1.3085,-0.133752
1.30875,-0.137003
1.309,-0.139855
1.30925,-0.117308
1.3095,-0.13623
1.30975,-0.170685
1.31,-0.115363
1.31025,-0.103729
1.3105,-0.146683
1.31075,-0.115595
1.311,-0.146616
1.31125,-0.171138
1.3115,-0.14039
1.31175,-0.148965
1.312,-0.190341
1.31225,-0.199709
1.3125,-0.200206
1.31275,-0.19784
1.313,-0.128411
1.31325,-0.14239
1.3135,-0.117821
1.31375,-0.123671
1.314,-0.156321
1.31425,-0.117008
1.3145,-0.15533
1.31475,-0.200841
1.315,-0.173237
1.31525,-0.140727
1.3155,-0.0941124
1.31575,-0.0931293
1.316,-0.107346
1.31625,-0.089899
1.3165,-0.0862597
1.31675,-0.0734177
1.317,-0.0651864
1.31725,-0.0382302
1.3175,-0.0576888
1.31775,-0.0104972
1.318,0.00071766
1.31825,-0.0408246
1.3185,0.0362074
1.31875,0.013066
1.319,0.077238
1.31925,0.0471678
1.3195,0.00910542
1.31975,0.0416918
1.32,-0.0172173
1.32025,0.0544625
1.3205,-0.0260966
1.32075,0.040383
1.321,0.0409679
1.32125,0.0128072
1.3215,-0.0189043
1.32175,-0.0456223
1.322,-0.0701838
1.32225,-0.00179436
1.3225,-0.0317277
1.32275,-0.0142998
1.323,-0.0576222
1.32325,-0.0351809
1.3235,-0.0107466
1.32375,-0.00954109
1.324,-0.0281296
1.32425,0.00613008
1.3245,-0.0182823
1.32475,-0.0178756
1.325,-0.0142552
1.32525,-0.0180582
1.3255,0.006667
1.32575,-0.00594116
1.326,-0.000475227
1.32625,-0.0210141
1.3265,0.00981775
1.32675,0.0299482
1.327,-0.0578089
1.32725,-0.0649761
1.3275,0.00183635
1.32775,-0.0272069
1.328,-0.0306967
1.32825,-0.0510113
1.3285,0.0150612
1.32875,-0.0132014
1.329,-0.0572072
1.32925,-0.0565867
1.3295,-0.0567099
1.32975,-0.0320432
1.33,-0.0605972
1.33025,-0.018657
1.3305,-0.057264
1.33075,-0.0853884
1.331,0.00923657
1.33125,-0.0323243
1.3315,-0.0683901
1.33175,-0.0368032
1.332,-0.0382537
1.33225,-0.00098233
1.3325,0.0170164
1.33275,0.0212034
1.333,0.0165999
1.33325,0.0397291
1.3335,0.0509003
1.33375,0.0613944
1.334,0.0782235
1.33425,0.094554
1.3345,0.103473
1.33475,0.134643
1.335,0.137105
1.33525,0.0871094
1.3355,0.0889653
1.33575,0.0913494
1.336,0.15861
1.33625,0.148033
1.3365,0.109075
1.33675,0.177916
1.337,0.140617
1.33725,0.136191
1.3375,0.14531
1.33775,0.157386
1.338,0.12974
1.33825,0.135694
1.3385,0.0655146
1.33875,0.151039
1.339,0.101195
1.33925,0.0738583
1.3395,0.0783594
1.33975,0.0728277
1.34,0.100092
1.34025,0.0480392
1.3405,0.0539051
1.34075,0.064635
1.341,0.0963107
1.34125,0.0896706
1.3415,0.0908931
1.34175,0.0917575
1.342,0.0914382
1.34225,0.0972607
1.3425,0.0951495
1.34275,0.0924849
1.343,0.123512
1.34325,0.0671451
1.3435,0.0864762
1.34375,0.0822986
1.344,0.111922
1.34425,0.0776215
1.3445,0.0871283
1.34475,0.0561569
1.345,0.125213
1.34525,0.0686694
1.3455,0.0851961
1.34575,0.0364586
1.346,0.0193367
1.34625,0.0180994
1.3465,0.0135503
1.34675,0.0315556
1.347,0.0136083
1.34725,0.00979337
1.3475,0.0491239
1.34775,0.0450029
1.348,0.0420065
1.34825,0.0244526
1.3485,0.110684
1.34875,0.0873583
1.349,0.0787716
1.34925,0.0736416
1.3495,0.117117
1.34975,0.112778
1.35,0.127369
1.35025,0.13983
1.3505,0.150944
1.35075,0.147719
1.351,0.202007
1.35125,0.155862
1.3515,0.214388
1.35175,0.20756
1.352,0.174025
1.35225,0.254834
1.3525,0.246134
1.35275,0.267543
1.353,0.25813
1.35325,0.226087
1.3535,0.174226
1.35375,0.2306
1.354,0.186878
1.35425,0.211723
1.3545,0.194677
1.35475,0.140617
1.355,0.200208
1.35525,0.132348
1.3555,0.153935
1.35575,0.1108
1.356,0.124851
1.35625,0.166756
1.3565,0.112638
1.35675,0.132166
1.357,0.15237
1.35725,0.147134
1.3575,0.125025
1.35775,0.144107
1.358,0.153406
1.35825,0.15018
1.3585,0.155732
1.35875,0.144896
1.359,0.172744
1.35925,0.176008
1.3595,0.199186
1.35975,0.172761
1.36,0.131213
1.36025,0.143735
1.3605,0.133792
1.36075,0.147985
1.361,0.157947
1.36125,0.201772
1.3615,0.159984
1.36175,0.159967
1.362,0.120789
1.36225,0.069558
1.3625,0.0862922
1.36275,0.0543091
1.363,0.0978489
1.36325,0.0736264
1.3635,0.0875887
1.36375,0.0939267
1.364,0.112466
1.36425,0.135084
1.3645,0.0399319
1.36475,0.0971218
1.365,0.0791653
1.36525,0.122344
1.3655,0.0809998
1.36575,0.110953
1.366,0.11611
1.36625,0.129952
1.3665,0.161806
1.36675,0.164265
1.367,0.18241
1.36725,0.196879
1.3675,0.191311
1.36775,0.225528
1.368,0.245663
1.36825,0.220286
1.3685,0.256261
1.36875,0.214533
1.369,0.181746
1.36925,0.231161
1.3695,0.272721
1.36975,0.222861
1.37,0.190407
1.37025,0.228078
1.3705,0.186
1.37075,0.224217
1.371,0.204683
1.37125,0.211181
1.3715,0.19426
1.37175,0.19256
1.372,0.202175
1.37225,0.151582
1.3725,0.155768
1.37275,0.135206
1.373,0.154167
1.37325,0.17601
1.3735,0.18922
1.37375,0.180897
1.374,0.152586
1.37425,0.159207
1.3745,0.157157
1.37475,0.15303
1.375,0.160017
1.37525,0.167706
1.3755,0.161444
1.37575,0.17124
1.376,0.165493
1.37625,0.178596
1.3765,0.208543
1.37675,0.111305
1.377,0.184594
1.37725,0.192648
1.3775,0.173522
1.37775,0.150701
1.378,0.169057
1.37825,0.146974
1.3785,0.0920402
1.37875,0.140165
1.379,0.0759968
1.37925,0.136551
1.3795,0.0461623
1.37975,0.0958769
1.38,0.0213823
1.38025,0.0544619
1.3805,0.0551682
1.38075,0.125498
1.381,0.102316
1.38125,0.12714
1.3815,0.0363577
1.38175,0.103354
1.382,0.100271
1.38225,0.0645717
1.3825,0.106149
1.38275,0.141836
1.383,0.133436
1.38325,0.143716
1.3835,0.154338
1.38375,0.174344
1.384,0.170673
1.38425,0.157326
1.3845,0.198274
1.38475,0.183544
1.385,0.228737
1.38525,0.2174
1.3855,0.270166
1.38575,0.284987
1.386,0.222238
1.38625,0.190404
1.3865,0.172395
1.38675,0.22879
1.387,0.181029
1.38725,0.19642
1.3875,0.227876
1.38775,0.191557
1.388,0.197687
1.38825,0.198682
1.3885,0.109405
1.38875,0.18039
1.389,0.158056
1.38925,0.134598
1.3895,0.123655
1.38975,0.160056
1.39,0.12731
1.39025,0.117683
1.3905,0.102919
1.39075,0.150487
1.391,0.121216
1.39125,0.118937
1.3915,0.121152
1.39175,0.124144
1.392,0.128332
1.39225,0.13626
1.3925,0.149901
1.39275,0.137052
1.393,0.157281
1.39325,0.0901862
1.3935,0.0671006
1.39375,0.0924413
1.394,0.0692296
1.39425,0.112749
1.3945,0.128585
1.39475,0.111402
1.395,0.108465
1.39525,0.112859
1.3955,0.0341049
1.39575,0.102793
1.396,0.0329916
1.39625,0.0925616
1.3965,0.0753721
1.39675,-0.00145175
1.397,0.0201506
1.39725,0.00495909
1.3975,0.0596406
1.39775,0.0651842
1.398,0.0520976
1.39825,0.0524869
1.3985,-0.00236116
1.39875,0.0554606
1.399,0.0522818
1.39925,0.0559658
1.3995,0.0669252
1.39975,0.0813223
1.4,0.0930574
1.40025,0.103255
1.4005,0.123483
1.40075,0.132312
1.401,0.131357
1.40125,0.164636
1.4015,0.115323
1.40175,0.129391
1.402,0.178881
1.40225,0.168549
1.4025,0.17895
1.40275,0.174153
1.403,0.159238
1.40325,0.141091
1.4035,0.167114
1.40375,0.153989
1.404,0.0943148
1.40425,0.128116
1.4045,0.126775
1.40475,0.0995694
1.405,0.0895861
1.40525,0.0817043
1.4055,0.103419
1.40575,0.0893016
1.406,0.0658595
1.40625,0.100983
1.4065,0.0798723
1.40675,0.114237
1.407,0.0518699
1.40725,0.0486308
1.4075,0.0374189
1.40775,0.0473614
1.408,0.0660795
1.40825,0.0577158
1.4085,0.0543089
1.40875,0.0658101
1.409,0.07336
1.40925,0.0703411
1.4095,0.0602995
1.40975,0.0543411
1.41,0.0718372
1.41025,0.0976109
1.4105,0.0155349
1.41075,0.0630219
1.411,0.017875
1.41125,0.0507256
1.4115,0.0235347
1.41175,0.0112187
1.412,0.0556769
1.41225,-0.0490165
1.4125,-0.032454
1.41275,0.00144288
1.413,-0.058515
1.41325,-0.0638521
1.4135,-0.0136224
1.41375,-0.0149047
1.414,-0.0780931
1.41425,-0.019768
1.4145,-0.0442522
1.41475,-0.0407515
1.415,-0.0627094
1.41525,-0.023305
1.4155,-0.0140924
1.41575,-0.00772279
1.416,-0.0215631
1.41625,0.00856883
1.4165,0.0210508
1.41675,0.0274678
1.417,0.0348825
1.41725,0.0459953
1.4175,0.0724159
1.41775,0.0606364
1.418,0.076577
1.41825,0.104101
1.4185,0.110847
1.41875,0.110076
1.419,0.12026
1.41925,0.126349
1.4195,0.0448394
1.41975,0.128663
1.42,0.120093
1.42025,0.0804629
1.4205,0.0891225
1.42075,0.104364
1.421,0.0976277
1.42125,0.0746844
1.4215,0.0205424
1.42175,0.0440099
1.422,0.00231028
1.42225,0.0359505
1.4225,-0.0108522
1.42275,-0.0172362
1.423,0.0118201
1.42325,-0.00641964
1.4235,0.000437086
1.42375,-0.0252064
1.424,-0.00930703
1.42425,-0.0246802
1.4245,-0.0328309
1.42475,-0.0116524
1.425,-0.00715858
1.42525,0.00125714
1.4255,-0.000249235
1.42575,-0.0147546
1.426,0.021016
1.42625,0.00220393
1.4265,0.00737871
1.42675,0.027487
1.427,-0.00143009
1.42725,0.0214958
1.4275,-0.00208802
1.42775,-0.00536007
1.428,0.0104535
1.42825,-0.0688726
1.4285,-0.0525824
1.42875,-0.0739791
1.429,-0.0211028
1.42925,-0.0852865
1.4295,-0.0648793
1.42975,-0.0882698
1.43,-0.125015
1.43025,-0.120589
1.4305,-0.050443
1.43075,-0.0996101
1.431,-0.09578
1.43125,-0.108187
1.4315,-0.121489
1.43175,-0.0590608
1.432,-0.0401198
1.43225,-0.104865
1.4325,-0.0708983
1.43275,-0.0762746
1.433,-0.0528323
1.43325,-0.0386744
1.4335,-0.0285385
1.43375,-0.00214682
1.434,-0.0122505
1.43425,0.0169812
1.4345,-0.0137747
1.43475,0.0269981
1.435,-0.00247744
1.43525,0.00737967
1.4355,0.0264105
1.43575,0.0699694
1.436,0.00666711
1.43625,0.0400073
1.4365,0.0187296
1.43675,0.0476508
1.437,-0.0141866
1.43725,0.0382026
1.4375,0.047878
1.43775,0.00848216
1.438,-0.042238
1.43825,-0.0741743
1.4385,-0.0420896
1.43875,-0.0194465
1.439,-0.0468221
1.43925,-0.0475305
1.4395,-0.0561987
1.43975,-0.0502161
1.44,-0.0616757
1.44025,-0.0171109
1.4405,-0.0483696
1.44075,-0.0607127
1.441,-0.057192
1.44125,-0.0601003
1.4415,-0.0580548
1.44175,-0.0578106
1.442,-0.0621943
1.44225,-0.0529437
1.4425,-0.0278317
1.44275,-0.0738298
1.443,-0.0223325
1.44325,-0.0771257
1.4435,-0.0573513
1.44375,-0.0640997
1.444,-0.000471493
1.44425,-0.049906
1.4445,-0.0666259
1.44475,-6.79E-02
1.445,-0.0988828
1.44525,-0.0950388
1.4455,-0.101003
1.44575,-0.15734
1.446,-0.164556
1.44625,-0.15436
1.4465,-0.160042
1.44675,-0.144501
1.447,-0.122365
1.44725,-0.135907
1.4475,-0.112101
1.44775,-0.10749
1.448,-0.108392
1.44825,-0.0960941
1.4485,-0.126395
1.44875,-0.171785
1.449,-0.124979
1.44925,-0.0951793
1.4495,-0.100258
1.44975,-0.078586
1.45,-0.0713941
1.45025,-0.0690338
1.4505,-0.0571761
1.45075,-0.0423241
1.451,-0.0424173
1.45125,0.00477211
1.4515,0.0148019
1.45175,0.0257968
1.452,-0.0466318
1.45225,0.00373618
1.4525,0.0176711
1.45275,-0.0387272
1.453,-0.0107212
1.45325,-0.0495797
1.4535,-0.0381112
1.45375,-0.0360922
1.454,-0.0685115
1.45425,-0.0506612
1.4545,-0.0412478
1.45475,-0.0757787
1.455,-0.00240105
1.45525,-0.0814223
1.4555,-0.0430076
1.45575,-0.0815603
1.456,-0.037214
1.45625,-0.0611046
1.4565,-0.100336
1.45675,-0.0777511
1.457,-0.0999937
1.45725,-0.0466996
1.4575,-0.078301
1.45775,-0.0746191
1.458,-0.0862726
1.45825,-0.0816985
1.4585,-0.0802074
1.45875,-0.0691754
1.459,-0.072768
1.45925,-0.0681896
1.4595,-0.0498813
1.45975,-0.0500246
1.46,-0.108695
1.46025,-0.0674687
1.4605,-0.0509054
1.46075,-0.133781
1.461,-0.0689243
1.46125,-0.107645
1.4615,-0.0990845
1.46175,-0.0610904
1.462,-0.15197
1.46225,-0.141454
1.4625,-0.0959294
1.46275,-0.136251
1.463,-0.164281
1.46325,-0.166775
1.4635,-0.188455
1.46375,-0.158545
1.464,-0.188508
1.46425,-0.204575
1.4645,-0.0913403
1.46475,-0.14497
1.465,-0.152945
1.46525,-0.13316
1.4655,-0.141165
1.46575,-0.11652
1.466,-0.105585
1.46625,-0.110057
1.4665,-0.084824
1.46675,-0.0751846
1.467,-0.0685416
1.46725,-0.0312181
1.4675,-0.0160515
1.46775,-0.0171686
1.468,-0.0181626
1.46825,0.0105525
1.4685,0.026487
1.46875,-0.00496412
1.469,0.0612523
1.46925,0.0276158
1.4695,-0.0124699
1.46975,-0.0196316
1.47,0.0557786
1.47025,0.00714485
1.4705,0.00790379
1.47075,-0.00164698
1.471,-0.00863219
1.47125,-0.0402056
1.4715,-0.00117934
1.47175,-0.0603398
1.472,-0.0533057
1.47225,-0.033608
1.4725,-0.0675347
1.47275,-0.0642224
1.473,-0.104802
1.47325,-0.0833063
1.4735,-0.101878
1.47375,-0.0959648
1.474,-0.0606418
1.47425,-0.0740086
1.4745,-0.073288
1.47475,-0.0713361
1.475,-0.072021
1.47525,-0.0790152
1.4755,-0.0604919
1.47575,-0.0586178
1.476,-0.043443
1.47625,-0.0685578
1.4765,-0.0368087
1.47675,-0.0481851
1.477,-0.120086
1.47725,-0.0575465
1.4775,-0.0403827
1.47775,-0.0586953
1.478,-0.150883
1.47825,-0.0991132
1.4785,-0.0737422
1.47875,-0.124995
1.479,-0.11848
1.47925,-0.101898
1.4795,-0.155635
1.47975,-0.131183
1.48,-0.0987673
1.48025,-0.121144
1.4805,-0.144388
1.48075,-0.160557
1.481,-0.108812
1.48125,-0.168844
1.4815,-0.134371
1.48175,-0.124065
1.482,-0.117131
1.48225,-0.139247
1.4825,-0.111129
1.48275,-0.091241
1.483,-0.0762628
1.48325,-0.0661904
1.4835,-0.050261
1.48375,-0.0457316
1.484,-0.0330532
1.48425,-0.0147703
1.4845,0.000562022
1.48475,-0.00952076
1.485,0.0404972
1.48525,-0.0253266
1.4855,-0.0413789
1.48575,0.0513291
1.486,-0.0313258
1.48625,0.00836897
1.4865,0.0264168
1.48675,0.0517977
1.487,0.0564972
1.48725,-9.47E-03
1.4875,-0.0195477
1.48775,0.0446431
1.488,0.00598446
1.48825,-0.0406437
1.4885,-0.0627528
1.48875,0.0230175
1.489,-0.0508595
1.48925,-0.0362492
1.4895,-0.0838851
1.48975,-0.0536224
1.49,-0.0188788
1.49025,-0.0620812
1.4905,-0.0554611
1.49075,-0.0498112
1.491,-0.0817298
1.49125,-0.0458139
1.4915,-0.0553574
1.49175,-0.0465175
1.492,-0.0357121
1.49225,-0.0241426
1.4925,-0.0133168
1.49275,-0.0194954
1.493,-0.0329232
1.49325,-0.03313
1.4935,-0.0793641
1.49375,-0.0100378
1.494,-0.0941905
1.49425,-0.0547553
1.4945,-0.118399
1.49475,-0.107648
1.495,-0.125267
1.49525,-0.113955
1.4955,-0.116752
1.49575,-0.121793
1.496,-0.1145
1.49625,-0.0652494
1.4965,-0.130128
1.49675,-0.120773
1.497,-0.131056
1.49725,-0.117804
1.4975,-0.0851514
1.49775,-0.098017
1.498,-0.124381
1.49825,-0.136442
1.4985,-0.0918329
1.49875,-0.11994
1.499,-0.07046
1.49925,-0.0493116
1.4995,-0.0432829
1.49975,-0.0421834
1.5,-0.0294575
1.50025,-0.0170381
1.5005,-0.0108839
1.50075,-0.00649313
1.501,0.0286598
1.50125,0.0725055
1.5015,0.0166419
1.50175,-0.0104067
1.502,5.60E-02
1.50225,0.0397312
1.5025,0.0741465
1.50275,0.076279
1.503,0.0813465
1.50325,0.0543509
1.5035,0.0725306
1.50375,0.0530068
1.504,-0.00854824
1.50425,0.0329157
1.5045,-0.00845885
1.50475,0.01365
1.505,0.00910599
1.50525,0.0395378
1.5055,-0.0448348
1.50575,-0.0112012
1.506,0.0408771
1.50625,-0.0436239
1.5065,-0.0665773
1.50675,-0.0227443
1.507,-0.0322518
1.50725,-0.0139155
1.5075,0.00689873
1.50775,-0.028674
1.508,-0.0202614
1.50825,-0.0150518
1.5085,-0.0162725
1.50875,-0.000210068
1.509,0.00460312
1.50925,-0.0223854
1.5095,-0.0268107
1.50975,-0.0124252
1.51,0.0458129
1.51025,0.00386133
1.5105,0.0243567
1.51075,-0.0577039
1.511,-0.0081931
1.51125,0.000336332
1.5115,-0.0909465
1.51175,-0.0790958
1.512,-0.0442173
1.51225,-0.0754474
1.5125,-0.0269524
1.51275,-0.104955
1.513,-0.0852105
1.51325,-0.0373795
1.5135,-0.0814779
1.51375,-0.0993949
1.514,-0.0608254
1.51425,-0.110883
1.5145,-0.0397523
1.51475,-0.0866194
1.515,-0.0753042
1.51525,-0.0494819
1.5155,-0.0765927
1.51575,-0.0276106
1.516,-0.0373468
1.51625,-0.0334013
1.5165,-0.00581488
1.51675,0.00602449
1.517,0.0188779
1.51725,0.0341515
1.5175,0.0483988
1.51775,0.0425268
1.518,0.0319115
1.51825,0.0651585
1.5185,0.0217988
1.51875,0.0963543
1.519,0.0305405
1.51925,0.121519
1.5195,0.0598521
1.51975,0.109526
1.52,0.113451
1.52025,0.0665325
1.5205,0.0938964
1.52075,0.0275434
1.521,0.0682943
1.52125,0.0654095
1.5215,0.0581144
1.52175,0.0492408
1.522,0.0102763
1.52225,0.0258674
1.5225,0.0848415
1.52275,-0.0225986
1.523,0.0630053
1.52325,0.0248835
1.5235,0.0123885
1.52375,0.00684893
1.524,0.0137377
1.52425,0.0127014
1.5245,0.00173772
1.52475,0.00715372
1.525,0.0151129
1.52525,0.0198628
1.5255,0.0362711
1.52575,0.0432494
1.526,0.0201713
1.52625,0.0115428
1.5265,0.017283
1.52675,0.0172797
1.527,0.0191156
1.52725,0.0340494
1.5275,-0.000700061
1.52775,-0.0250455
1.528,-0.0318398
1.52825,0.00388554
1.5285,-0.00326209
1.52875,0.0283061
1.529,-0.0196542
1.52925,-0.0143259
1.5295,-0.00539347
1.52975,0.0122415
1.53,-0.059164
1.53025,-0.0485543
1.5305,-0.0094451
1.53075,-0.0742696
1.531,-0.0299865
1.53125,-0.0861592
1.5315,0.00567671
1.53175,-0.0228089
1.532,-0.0210119
1.53225,-0.0229941
1.5325,-0.00830461
1.53275,-0.0180078
1.533,0.0109734
1.53325,0.0197734
1.5335,0.0312939
1.53375,4.49E-02
1.534,0.0647517
1.53425,0.0645371
1.5345,0.0865557
1.53475,0.0789098
1.535,0.125813
1.53525,0.128826
1.5355,0.142824
1.53575,0.149113
1.536,0.157014
1.53625,0.076418
1.5365,0.0926882
1.53675,0.133524
1.537,0.0759765
1.53725,0.0918116
1.5375,0.0703897
1.53775,0.104737
1.538,0.0972468
1.53825,0.0489456
1.5385,0.0487084
1.53875,0.0330536
1.539,0.0236098
1.53925,0.0151968
1.5395,-0.0168437
1.53975,0.0493327
1.54,0.0168345
1.54025,0.0369545
1.5405,0.0407109
1.54075,0.0245761
1.541,0.0294493
1.54125,0.0207916
1.5415,0.0269747
1.54175,0.0298925
1.542,0.0371072
1.54225,0.0210246
1.5425,0.047708
1.54275,0.0335985
1.543,0.0261396
1.54325,0.0131648
1.5435,0.0465428
1.54375,0.0209505
1.544,0.0534336
1.54425,0.0359507
1.5445,0.0521199
1.54475,0.0187934
1.545,-0.0269224
1.54525,0.0304906
1.5455,-0.0555255
1.54575,-0.0512241
1.546,0.0208455
1.54625,-0.0439192
1.5465,-0.00116694
1.54675,-0.0748846
1.547,-0.00571423
1.54725,-0.07115
1.5475,-0.00890575
1.54775,-0.0491341
1.548,-0.0668105
1.54825,-0.0168326
1.5485,-0.0418982
1.54875,-0.0497261
1.549,-0.0181259
1.54925,0.0199798
1.5495,-0.000636134
1.54975,0.0229357
1.55,0.0332127
1.55025,0.0376434
1.5505,0.0570306
1.55075,0.0617482
1.551,0.0824169
1.55125,0.0716507
1.5515,0.126777
1.55175,0.0800186
1.552,0.062187
1.55225,0.0966649
1.5525,0.0890521
1.55275,0.0874554
1.553,0.0930105
1.55325,0.0815418
1.5535,0.0705474
1.55375,0.103177
1.554,0.0613537
1.55425,0.0815098
1.5545,0.0360075
1.55475,0.110243
1.555,0.0771909
1.55525,-0.00858361
1.5555,0.0622314
1.55575,0.0297879
1.556,0.00623143
1.55625,0.0370217
1.5565,0.00833202
1.55675,0.0452272
1.557,0.0342366
1.55725,0.0355392
1.5575,0.0204252
1.55775,0.0207235
1.558,0.0325475
1.55825,0.0298768
1.5585,0.0339639
1.55875,0.0457138
1.559,0.0259465
1.55925,0.028297
1.5595,0.0267353
1.55975,0.0206622
1.56,0.0425807
1.56025,0.0271291
1.5605,0.0315918
1.56075,0.0393788
1.561,0.0465087
1.56125,-0.0126622
1.5615,0.0349997
1.56175,-0.0377863
1.562,0.0265343
1.56225,-0.00875784
1.5625,-0.00876185
1.56275,0.00326305
1.563,-0.0836022
1.56325,-0.0328179
1.5635,-0.0978961
1.56375,-0.0553036
1.564,-0.0425209
1.56425,-0.0305981
1.5645,0.0157081
1.56475,-0.0817917
1.565,-0.0952772
1.56525,-0.0326913
1.5655,-0.00288542
1.56575,0.0131475
1.566,0.00812555
1.56625,0.00334438
1.5665,0.017714
1.56675,0.0336115
1.567,0.0387348
1.56725,0.0524049
1.5675,0.0788166
1.56775,0.108648
1.568,0.0654017
1.56825,0.098954
1.5685,0.132633
1.56875,0.0982632
1.569,0.111734
1.56925,0.0587171
1.5695,0.0667362
1.56975,0.126988
1.57,0.0569362
1.57025,0.111279
1.5705,0.0547946
1.57075,0.0321943
1.571,0.114965
1.57125,0.0323275
1.5715,0.0729909
1.57175,0.0342086
1.572,0.0475986
1.57225,0.0822412
1.5725,0.0579781
1.57275,0.0807145
1.573,-0.00766551
1.57325,0.00134118
1.5735,-0.00188248
1.57375,0.0358589
1.574,0.060191
1.57425,0.0223
1.5745,0.0334984
1.57475,0.0169911
1.575,0.0236399
1.57525,0.025239
1.5755,0.016748
1.57575,0.0100546
1.576,0.0565323
1.57625,0.0452812
1.5765,0.0230188
1.57675,0.0121012
1.577,-0.0058151
1.57725,0.0235742
1.5775,0.0136209
1.57775,0.053258
1.578,-0.0570415
1.57825,0.0208601
1.5785,0.0193675
1.57875,0.0130057
1.579,0.00383196
1.57925,-0.0114422
1.5795,-0.0262651
1.57975,-0.0486867
1.58,-0.0231771
1.58025,-0.075905
1.5805,-0.065966
1.58075,-0.0847016
1.581,-0.0283107
1.58125,-0.0145435
1.5815,-0.0626637
1.58175,-0.0337766
1.582,-6.39E-03
1.58225,-0.0152199
1.5825,-0.00288609
1.58275,-0.0108531
1.583,-0.00558081
1.58325,0.0120458
1.5835,0.0207852
1.58375,0.04164
1.584,0.0757978
1.58425,0.0746115
1.5845,0.080143
1.58475,0.093502
1.585,0.0705711
1.58525,0.0719352
1.5855,0.0861542
1.58575,0.0861156
1.586,0.064453
1.58625,0.125513
1.5865,0.0514652
1.58675,0.0407747
1.587,0.0380563
1.58725,0.0481414
1.5875,0.0966139
1.58775,0.0369545
1.588,0.0439361
1.58825,0.0273445
1.5885,0.030342
1.58875,0.0258251
1.589,0.0552831
1.58925,0.0365016
1.5895,0.0185757
1.58975,0.0457338
1.59,0.0168723
1.59025,-0.0172692
1.5905,0.00129081
1.59075,0.0015001
1.591,0.00697539
1.59125,-0.00124459
1.5915,0.0111526
1.59175,0.0134223
1.592,0.0205522
1.59225,0.0195765
1.5925,0.0354302
1.59275,0.00500352
1.593,0.0321449
1.59325,0.0261469
1.5935,0.0142661
1.59375,-0.000447863
1.594,0.0574823
1.59425,0.0288884
1.5945,0.0252436
1.59475,-0.0216466
1.595,0.047047
1.59525,-0.00730668
1.5955,-0.0353537
1.59575,-0.059017
1.596,-0.00196818
1.59625,-0.100689
1.5965,-0.104606
1.59675,-0.00232578
1.597,-0.0852862
1.59725,-0.0754884
1.5975,-0.062208
1.59775,-0.0942065
1.598,-0.00713306
1.59825,-0.083794
1.5985,-0.0530358
1.59875,-0.0959449
1.599,-0.066302
1.59925,-0.0491775
1.5995,-0.018018
1.59975,-0.00971577
1.6,0.00360655
1.60025,0.0102131
1.6005,0.0260204
1.60075,0.030816
1.601,0.0333734
1.60125,0.0568364
1.6015,0.0631016
1.60175,0.086798
1.602,0.086872
1.60225,0.0567368
1.6025,0.0733352
1.60275,0.097052
1.603,0.13727
1.60325,0.137573
1.6035,0.0757417
1.60375,0.0872617
1.604,0.0556026
1.60425,0.0916573
1.6045,0.0169313
1.60475,0.0700367
1.605,0.0791875
1.60525,0.0570591
1.6055,0.0227377
1.60575,0.00864039
1.606,-0.00850689
1.60625,0.00393218
1.6065,-0.0317461
1.60675,-0.0174588
1.607,0.0110111
1.60725,0.024815
1.6075,0.00383321
1.60775,-4.58E-05
1.608,0.000464483
1.60825,-0.00221637
1.6085,0.0030061
1.60875,-0.0083594
1.609,-0.00951196
1.60925,0.0159421
1.6095,0.000806215
1.60975,-0.0220819
1.61,0.0307108
1.61025,0.0275395
1.6105,-0.0393613
1.61075,-0.0335447
1.611,-0.0286232
1.61125,-0.0023338
1.6115,-0.0278811
1.61175,-0.000245832
1.612,-0.0806423
1.61225,-0.086701
1.6125,-0.101268
1.61275,-0.0869315
1.613,-0.109569
1.61325,-0.0416099
1.6135,-0.105668
1.61375,-0.0648934
1.614,-0.0617448
1.61425,-0.0495283
1.6145,-0.0730298
1.61475,-0.0744165
1.615,-0.0406356
1.61525,-0.0498709
1.6155,-0.0738081
1.61575,-0.0561293
1.616,-0.0150849
1.61625,-0.0264667
1.6165,-0.0121976
1.61675,-0.00241206
1.617,0.015733
1.61725,0.0345835
1.6175,0.0156594
1.61775,0.030182
1.618,0.040976
1.61825,0.00942616
1.6185,0.0312519
1.61875,0.0779511
1.619,0.0410042
1.61925,0.0337032
1.6195,0.127563
1.61975,0.059482
1.62,0.0930922
1.62025,0.0351463
1.6205,0.0660758
1.62075,0.0441558
1.621,0.017084
1.62125,0.00499982
1.6215,0.0718473
1.62175,-0.016855
1.622,0.0284835
1.62225,-0.0495421
1.6225,-0.00511588
1.62275,-0.00424401
1.623,-0.061875
1.62325,-0.000707863
1.6235,-0.0133711
1.62375,-0.0162202
1.624,-0.00580573
1.62425,-0.0302913
1.6245,-0.0110875
1.62475,-0.00639129
1.625,-0.00970335
1.62525,-0.00565171
1.6255,0.0135385
1.62575,-0.0131322
1.626,0.00414322
1.62625,0.0158274
1.6265,-0.000668733
1.62675,-0.0554485
1.627,0.00199808
1.62725,-0.0244918
1.6275,0.0268498
1.62775,-0.0206756
1.628,-0.0692062
1.62825,-0.0151545
1.6285,-0.0698094
1.62875,-0.0604235
1.629,-0.0654837
1.62925,-0.0131167
1.6295,-0.0344211
1.62975,-0.0498515
1.63,-0.135989
1.63025,-0.0704991
1.6305,-0.0838937
1.63075,-0.0669699
1.631,-0.0765042
1.63125,-0.0773234
1.6315,-0.089757
1.63175,-0.120031
1.632,-0.0647379
1.63225,-0.0823172
1.6325,-0.0358601
1.63275,-0.0124923
1.633,-0.0226178
1.63325,-0.0126105
1.6335,1.33E-05
1.63375,0.0124058
1.634,0.0340851
1.63425,0.0473808
1.6345,0.0835231
1.63475,0.00356032
1.635,0.0640618
1.63525,0.0733279
1.6355,0.0307171
1.63575,0.0186107
1.636,0.0549155
1.63625,0.01939
1.6365,-0.000107538
1.63675,0.00467301
1.637,0.0311771
1.63725,0.0444924
1.6375,0.0268878
1.63775,0.011836
1.638,0.0278528
1.63825,0.0065461
1.6385,0.0240965
1.63875,0.00716434
1.639,-0.0162646
1.63925,-0.0527602
1.6395,0.0424848
1.63975,0.0214474
1.64,-0.035237
1.64025,-0.0198197
1.6405,-0.0174729
1.64075,-0.0396756
1.641,-0.0103808
1.64125,-0.013798
1.6415,-0.0153257
1.64175,-0.012211
1.642,-0.00996669
1.64225,-0.0244363
1.6425,0.000420802
1.64275,0.000640389
1.643,0.00452325
1.64325,0.0107424
1.6435,0.00122915
1.64375,0.0369452
1.644,-0.0232786
1.64425,-0.0719635
1.6445,-0.01292
1.64475,-0.0203976
1.645,0.00737431
1.64525,-0.0364301
1.6455,-0.0399654
1.64575,-0.0267537
1.646,-0.0946705
1.64625,-0.0265288
1.6465,-0.0374947
1.64675,-0.0961056
1.647,-0.0984319
1.64725,-0.0929894
1.6475,-0.0292533
1.64775,-0.0927088
1.648,-0.104401
1.64825,-0.0720525
1.6485,-0.106298
1.64875,-0.0818015
1.649,-0.0618607
1.64925,-0.0312355
1.6495,-0.0200083
1.64975,-0.0195397
1.65,-0.0107332
1.65025,-0.00341598
1.6505,0.0109938
1.65075,0.0381974
1.651,0.00935796
1.65125,0.0270574
1.6515,0.0486627
1.65175,0.0580433
1.652,0.0428856
1.65225,0.0227415
1.6525,0.107259
1.65275,0.116372
1.653,0.0032538
1.65325,0.0763573
1.6535,0.0397935
1.65375,0.00490379
1.654,0.0472466
1.65425,6.70E-02
1.6545,0.0582646
1.65475,0.0210348
1.655,0.0179652
1.65525,0.0259216
1.6555,0.0165027
1.65575,0.0479633
1.656,0.0177604
1.65625,-0.0176628
1.6565,0.00121596
1.65675,0.0184568
1.657,-0.0174
1.65725,-0.00562026
1.6575,0.0184221
1.65775,-0.016921
1.658,-0.0141145
1.65825,-0.0103659
1.6585,-0.00887682
1.65875,0.0022122
1.659,-0.00796759
1.65925,-0.0147101
1.6595,0.0239853
1.65975,0.0199686
1.66,-1.67E-02
1.66025,-0.00716071
1.6605,0.0180748
1.66075,-0.00453994
1.661,0.00889124
1.66125,-0.0567275
1.6615,0.0160456
1.66175,-0.0645196
1.662,-0.0960543
1.66225,-0.0322234
1.6625,-0.0522506
1.66275,-0.0271444
1.663,-0.0957078
1.66325,-0.0815418
1.6635,-0.10286
1.66375,-0.0553428
1.664,-0.0693433
1.66425,-0.0542858
1.6645,-0.107142
1.66475,-0.0925059
1.665,-0.0369072
1.66525,-0.0887657
1.6655,-0.0787072
1.66575,-0.0542049
1.666,-0.0395914
1.66625,-0.011072
1.6665,-0.0120805
1.66675,-0.00144353
1.667,0.0087136
1.66725,0.0260648
1.6675,0.0189328
1.66775,0.0620569
1.668,0.0309769
1.66825,0.0831234
1.6685,0.0613202
1.66875,0.107734
1.669,0.0586992
1.66925,0.112305
1.6695,0.0673493
1.66975,0.0444731
1.67,0.0605445
1.67025,0.0210902
1.6705,0.00167261
1.67075,0.0428744
1.671,-0.00824276
1.67125,0.0760174
1.6715,0.0643021
1.67175,-0.0208661
1.672,0.0231939
1.67225,0.0396924
1.6725,0.011989
1.67275,0.0131129
1.673,-0.00074455
1.67325,-0.0606222
1.6735,-0.0149868
1.67375,0.00729611
1.674,-0.0221187
1.67425,-0.0070382
1.6745,-0.0194774
1.67475,-0.0104891
1.675,-0.00451215
1.67525,-0.00391646
1.6755,0.00350018
1.67575,-0.0210867
1.676,0.0248612
1.67625,0.0244213
1.6765,-0.00638616
1.67675,0.00327587
1.677,0.0273776
1.67725,-0.0357045
1.6775,-0.000964866
1.67775,0.0533677
1.678,-0.0180239
1.67825,-0.017031
1.6785,-0.0572476
1.67875,-0.00424202
1.679,-0.0369083
1.67925,-0.0113803
1.6795,-0.10638
1.67975,-0.031122
1.68,-0.123605
1.68025,-0.135842
1.6805,-0.0617395
1.68075,-0.0636365
1.681,-0.0908045
1.68125,-0.0531595
1.6815,-0.068473
1.68175,-0.0406296
1.682,-0.0694564
1.68225,-0.0733655
1.6825,-0.0612181
1.68275,-0.0214812
1.683,-0.0192482
1.68325,-0.00408628
1.6835,0.0019211
1.68375,0.0125846
1.684,0.0406537
1.68425,0.0485213
1.6845,0.0637581
1.68475,0.0693343
1.685,0.0995505
1.68525,0.063475
1.6855,0.0553072
1.68575,0.0300486
1.686,0.116187
1.68625,0.0732734
1.6865,0.0598035
1.68675,0.051255
1.687,0.0490531
1.68725,0.0770433
1.6875,0.086669
1.68775,-0.0113306
1.688,0.048038
1.68825,0.0260665
1.6885,0.0198172
1.68875,-0.00078316
1.689,-0.0323089
1.68925,0.0343551
1.6895,0.0193677
1.68975,0.0130069
1.69,-0.0132019
1.69025,-0.0130996
1.6905,0.000527243
1.69075,-0.0123672
1.691,-0.0152098
1.69125,-0.0174504
1.6915,-0.00342519
1.69175,-0.000454722
1.692,0.000182569
1.69225,0.00651832
1.6925,0.0219745
1.69275,0.00794868
1.693,0.0430573
1.69325,0.0369005
1.6935,-0.0177959
1.69375,-0.0183394
1.694,-0.0154285
1.69425,0.0595548
1.6945,-0.00177322
1.69475,-0.00967474
1.695,-0.0340512
1.69525,-0.0764823
1.6955,-0.0886851
1.69575,-0.061914
1.696,-0.0952703
1.69625,-0.0708628
1.6965,-0.0232636
1.69675,-0.127132
1.697,-0.0832132
1.69725,-0.0724011
1.6975,-0.0729596
1.69775,-0.0422054
1.698,-0.0545013
1.69825,-0.0469106
1.6985,-1.02E-01
1.69875,-0.041596
1.699,-0.0241072
1.69925,-0.01085
1.6995,-0.0203403
1.69975,-0.0106691
1.7,0.00139535
1.70025,0.0108931
1.7005,0.0182809
1.70075,0.0193235
1.701,0.0224494
1.70125,0.0782796
1.7015,0.075041
1.70175,0.0905702
1.702,0.0791188
1.70225,0.0849129
1.7025,0.0805843
1.70275,0.094649
1.703,0.0154612
1.70325,0.106736
1.7035,0.0710727
1.70375,0.029201
1.704,0.0214245
1.70425,0.0872178
1.7045,0.0317487
1.70475,0.0771774
1.705,0.0662346
1.70525,-0.00226458
1.7055,0.0609721
1.70575,0.0329921
1.706,-0.0255453
1.70625,0.0235655
1.7065,0.00834473
1.70675,0.0391577
1.707,-0.00900029
1.70725,-0.0359939
1.7075,0.0194167
1.70775,-0.00167954
1.708,0.0107246
1.70825,-0.000902598
1.7085,0.00330021
1.70875,2.36E-03
1.709,-0.00386361
1.70925,0.00827206
1.7095,0.0272479
1.70975,0.0337195
1.71,-0.00854266
1.71025,0.0288867
1.7105,0.032426
1.71075,0.0612596
1.711,0.00621865
1.71125,-0.0196851
1.7115,-0.005686
1.71175,-0.00261737
1.712,-0.00488017
1.71225,-0.02697
1.7125,-0.0482477
1.71275,-0.0817387
1.713,-0.0601621
1.71325,-0.0963626
1.7135,-0.0592217
1.71375,-0.0212237
1.714,-0.113263
1.71425,-0.0654285
1.7145,-0.0744254
1.71475,-1.00E-01
1.715,-0.0608205
1.71525,-0.069619
1.7155,-0.0435351
1.71575,-0.0182715
1.716,-0.00385586
1.71625,-0.016733
1.7165,-0.00723888
1.71675,0.00607936
1.717,0.0261868
1.71725,0.0228739
1.7175,0.0340266
1.71775,0.0551803
1.718,0.0265514
1.71825,0.0657269
1.7185,0.041333
1.71875,0.12665
1.719,0.114167
1.71925,0.118641
1.7195,0.0713217
1.71975,0.0782274
1.72,0.0743464
1.72025,0.101087
1.7205,0.0991477
1.72075,0.0480444
1.721,0.0745269
1.72125,0.0727322
1.7215,0.052829
1.72175,-0.0224804
1.722,0.0179678
1.72225,-0.0485537
1.7225,-7.64E-03
1.72275,-0.014145
1.723,0.0334543
1.72325,-0.0161944
1.7235,-0.00136375
1.72375,0.0225591
1.724,-0.00512588
1.72425,-0.0179769
1.7245,-0.00433946
1.72475,0.00462627
1.725,0.00326806
1.72525,0.00765264
1.7255,-0.00600469
1.72575,0.0276505
1.726,0.0306445
1.72625,0.0560256
1.7265,0.0420333
1.72675,0.0487296
1.727,-0.0112139
1.72725,0.027089
1.7275,0.0130481
1.72775,0.00477406
1.728,0.0209947
1.72825,-0.0274285
1.7285,0.0159164
1.72875,-0.0597327
1.729,-0.0666162
1.72925,-0.00498451
1.7295,-0.0967211
1.72975,-0.0105596
1.73,-0.0675737
1.73025,-0.049435
1.7305,-0.103503
1.73075,-0.093207
1.731,-0.10462
1.73125,-0.0380392
1.7315,-0.0578579
1.73175,-0.0128631
1.732,-0.0562109
1.73225,-0.0630509
1.7325,-0.0502195
1.73275,-0.0375889
1.733,-0.00762816
1.73325,-0.000187903
1.7335,0.0079976
1.73375,0.0172429
1.734,0.0298471
1.73425,0.0259656
1.7345,0.0938797
1.73475,0.0124084
1.735,0.0799566
1.73525,0.067669
1.7355,0.0316557
1.73575,0.0853271
1.736,0.0589756
1.73625,0.0954247
1.7365,0.110302
1.73675,0.062302
1.737,0.0150401
1.73725,0.0770968
1.7375,0.0547867
1.73775,0.0728594
1.738,0.0457492
1.73825,0.00810352
1.7385,0.0115473
1.73875,-0.00521584
1.739,0.0393877
1.73925,0.0268945
1.7395,-0.0123677
1.73975,0.00876646
1.74,-0.0164052
1.74025,0.00616417
1.7405,0.0118612
1.74075,-0.0243034
1.741,0.018326
1.74125,-0.00983679
1.7415,0.000283921
1.74175,0.00381944
1.742,0.00757494
1.74225,0.0254584
1.7425,-0.00916087
1.74275,0.0063023
1.743,0.00426251
1.74325,0.0052458
1.7435,-0.00254736
1.74375,-0.0244664
1.744,-0.0385721
1.74425,0.00347291
1.7445,0.00452711
1.74475,-0.058194
1.745,-0.0706881
1.74525,-0.0349236
1.7455,-0.0352681
1.74575,-0.0825514
1.746,-0.0532178
1.74625,-0.092114
1.7465,-0.0674961
1.74675,-8.06E-03
1.747,-0.0465595
1.74725,-0.0377185
1.7475,-0.107228
1.74775,-0.0900169
1.748,-0.0867073
1.74825,-0.0637652
1.7485,-0.0764772
1.74875,-0.0693997
1.749,-0.0492265
1.74925,-0.0112019
1.7495,-0.0370839
1.74975,-0.00578707
1.75,0.00199241
1.75025,0.0133915
1.7505,0.0247415
1.75075,0.0642546
1.751,0.0740073
1.75125,0.0932723
1.7515,0.061487
1.75175,0.0784605
1.752,0.0590619
1.75225,0.0882855
1.7525,0.0635019
1.75275,0.0886677
1.753,0.0388393
1.75325,0.073871
1.7535,0.104284
1.75375,0.0318695
1.754,0.100428
1.75425,0.098608
1.7545,0.0640761
1.75475,-0.0113433
1.755,0.0446328
1.75525,0.0227121
1.7555,0.0408855
1.75575,-7.05E-05
1.756,-0.0462428
1.75625,0.00672357
1.7565,-0.00687546
1.75675,-0.0258434
1.757,-0.00346231
1.75725,-0.00262551
1.7575,-8.44E-03
1.75775,-0.00819307
1.758,-0.00804179
1.75825,0.00233541
1.7585,-0.00224188
1.75875,0.00490351
1.759,-0.00993012
1.75925,0.0187569
1.7595,0.0327947
1.75975,-0.00262542
1.76,0.0182671
1.76025,0.0431038
1.7605,-0.0214125
1.76075,-0.0269221
1.761,-0.0226797
1.76125,-0.000625616
1.7615,-0.0443677
1.76175,0.0189877
1.762,0.0243201
1.76225,-0.0113887
1.7625,-0.0369421
1.76275,-0.0604961
1.763,-0.0370278
1.76325,-0.0904229
1.7635,-0.0660347
1.76375,-0.0567332
1.764,-0.0701404
1.76425,-0.11716
1.7645,-0.096563
1.76475,-0.0402039
1.765,-0.0408437
1.76525,-0.0272878
1.7655,-0.0444213
1.76575,-0.0403782
1.766,-0.0128854
1.76625,-0.00603137
1.7665,-0.0133512
1.76675,0.00526294
1.767,0.0299162
1.76725,0.0404911
1.7675,0.0474483
1.76775,0.0828802
1.768,0.00880424
1.76825,0.0702817
1.7685,0.102242
1.76875,0.121057
1.769,0.0188897
1.76925,0.0594349
1.7695,0.0840054
1.76975,0.0613438
1.77,0.0979168
1.77025,0.0586532
1.7705,0.0195855
1.77075,0.0675191
1.771,0.0597127
1.77125,0.00398871
1.7715,0.0162492
1.77175,0.0101012
1.772,0.0777577
1.77225,0.0350488
1.7725,0.0297122
1.77275,-0.0200899
1.773,0.0113376
1.77325,-0.0295672
1.7735,-0.00578616
1.77375,-0.00707701
1.774,-0.00251273
1.77425,-0.0086095
1.7745,-0.00838468
1.77475,0.0061207
1.775,0.000152502
1.77525,-0.000255898
1.7755,-0.00550208
1.77575,0.0237955
1.776,-0.00543356
1.77625,0.000552861
1.7765,0.034399
1.77675,0.0303844
1.777,0.0152759
1.77725,0.00721769
1.7775,-0.0270625
1.77775,-0.0708557
1.778,-0.0816988
1.77825,-0.0535464
1.7785,-0.0574383
1.77875,-0.0545033
1.779,-0.0341296
1.77925,-0.0232527
1.7795,-0.0963782
1.77975,-0.0764091
1.78,-0.0502437
1.78025,-0.085218
1.7805,-0.0662069
1.78075,-0.0588691
1.781,-0.0780667
1.78125,-0.0203986
1.7815,-0.0897423
1.78175,-0.0352212
1.782,-0.0522275
1.78225,-0.070079
1.7825,-0.0241709
1.78275,-0.0316774
1.783,-0.025518
1.78325,-0.00498592
1.7835,0.0104092
1.78375,0.0145617
1.784,0.0170697
1.78425,0.045917
1.7845,0.00610979
1.78475,0.0369041
1.785,0.083105
1.78525,0.0792617
1.7855,0.0824146
1.78575,0.0866201
1.786,0.0858657
1.78625,0.0767606
1.7865,0.0567984
1.78675,0.00831823
1.787,0.0631238
1.78725,0.0820697
1.7875,0.0991768
1.78775,0.0719609
1.788,0.0189257
1.78825,0.0519938
1.7885,0.0393946
1.78875,-0.0282663
1.789,0.00254688
1.78925,-0.0282035
1.7895,-0.0322612
1.78975,-0.0203646
1.79,-0.0150825
1.79025,-0.00412054
1.7905,-0.0264327
1.79075,-0.0175992
1.791,0.0074046
1.79125,-0.00302754
1.7915,-0.000304342
1.79175,-0.00225803
1.792,-0.00549983
1.79225,0.0069001
1.7925,0.0329647
1.79275,0.00561943
1.793,0.0190302
1.79325,0.0228795
1.7935,-0.0145979
1.79375,-0.028095
1.794,-0.0322622
1.79425,0.00328742
1.7945,-0.0484038
1.79475,-0.0440158
1.795,0.0335718
1.79525,-0.0545493
1.7955,-0.0506928
1.79575,-0.0918258
1.796,-0.046865
1.79625,-0.0275204
1.7965,-0.0790443
1.79675,-0.065396
1.797,-0.0935057
1.79725,-0.0637111
1.7975,-0.0581421
1.79775,-0.0547178
1.798,-0.0134291
1.79825,-0.055307
1.7985,-0.0752348
1.79875,-0.0652408
1.799,-0.0150511
1.79925,-0.0551685
1.7995,-0.034787
1.79975,-0.0160948
1.8,-0.000685857
1.80025,0.0121948
1.8005,0.0179827
1.80075,0.0288319
1.801,0.0149952
1.80125,0.0260333
1.8015,0.0598614
1.80175,0.0431102
1.802,0.111152
1.80225,0.0784743
1.8025,0.0907839
1.80275,0.0708629
1.803,0.0788794
1.80325,0.0899275
1.8035,0.0803175
1.80375,0.0598091
1.804,0.0793002
1.80425,0.0462154
1.8045,0.0828148
1.80475,0.071538
1.805,-0.0249429
1.80525,0.0182742
1.8055,0.00170251
1.80575,-0.0325998
1.806,-1.26E-02
1.80625,-0.00742419
1.8065,-0.0136709
1.80675,0.0216753
1.807,-0.045312
1.80725,-0.0304235
1.8075,0.00145864
1.80775,-1.80E-02
1.808,-6.53E-05
1.80825,-0.00328538
1.8085,0.00317847
1.80875,-0.00318697
1.809,0.024603
1.80925,-0.0222586
1.8095,0.040276
1.80975,0.0245287
1.81,-0.0250961
1.81025,-0.0414
1.8105,5.63E-02
1.81075,-0.00666663
1.811,-0.0521916
1.81125,0.0184183
1.8115,0.00897009
1.81175,-0.0577827
1.812,0.0237713
1.81225,-0.0212722
1.8125,-0.0916314
1.81275,-0.0679354
1.813,-0.0956049
1.81325,-0.0164162
1.8135,-0.0750912
1.81375,-0.101528
1.814,-0.132679
1.81425,-0.0195836
1.8145,-0.138244
1.81475,-0.0819445
1.815,-0.0685027
1.81525,-0.0301583
1.8155,-0.0393698
1.81575,-0.0656243
1.816,-0.0124315
1.81625,-0.0163763
1.8165,-0.0103173
1.81675,0.0059336
1.817,0.0117504
1.81725,0.0444754
1.8175,0.044356
1.81775,0.0573336
1.818,0.0633694
1.81825,0.0675445
1.8185,0.0666351
1.81875,0.0498231
1.819,0.0641118
1.81925,0.0647712
1.8195,0.0636234
1.81975,0.0553452
1.82,0.0236691
1.82025,0.103335
1.8205,0.0477144
1.82075,0.000391468
1.821,0.0402739
1.82125,0.0620459
1.8215,0.0487912
1.82175,-0.00947621
1.822,0.0311187
1.82225,0.0189392
1.8225,-0.00849015
1.82275,0.0470656
1.823,-0.0131913
1.82325,0.00814783
1.8235,-0.0293301
1.82375,-0.0301104
1.824,0.0321813
1.82425,0.00812167
1.8245,-0.00233473
1.82475,-0.00920244
1.825,-0.000547169
1.82525,0.000122874
1.8255,0.0129693
1.82575,-0.0124328
1.826,0.0303859
1.82625,0.0296949
1.8265,-0.00777827
1.82675,-0.0208462
1.827,0.0174929
1.82725,0.0316731
1.8275,0.00139318
1.82775,-0.0299279
1.828,0.0131528
1.82825,-0.0760894
1.8285,-0.0768127
1.82875,-0.0210223
1.829,-0.0346169
1.82925,-0.050478
1.8295,-0.0512427
1.82975,-0.0934213
1.83,-0.0388674
1.83025,-0.0340233
1.8305,-0.131948
1.83075,-0.0259965
1.831,-0.109646
1.83125,-0.0614213
1.8315,-8.82E-02
1.83175,-0.0836578
1.832,-0.0313658
1.83225,-0.0318115
1.8325,-0.0442447
1.83275,-0.028461
1.833,-0.0183088
1.83325,-0.00443631
1.8335,0.00581451
1.83375,0.00991178
1.834,0.0352177
1.83425,0.045419
1.8345,0.0581048
1.83475,0.0412438
1.835,0.0250951
1.83525,0.0433488
1.8355,0.00913751
1.83575,0.0656343
1.836,0.0446921
1.83625,0.0600013
1.8365,0.0682465
1.83675,0.0437799
1.837,0.097423
1.83725,0.0227102
1.8375,0.0208552
1.83775,0.0771685
1.838,0.059998
1.83825,0.0333144
1.8385,0.00434191
1.83875,-0.0148231
1.839,-0.0368764
1.83925,0.0346765
1.8395,0.0228408
1.83975,0.0245113
1.84,-0.00545661
1.84025,0.00135318
1.8405,0.0173383
1.84075,0.00721773
1.841,-0.0132223
1.84125,-0.00973643
1.8415,-0.00124567
1.84175,0.00128598
1.842,0.00778439
1.84225,0.0103973
1.8425,0.00569787
1.84275,0.0221763
1.843,0.0427025
1.84325,0.0111577
1.8435,-0.0195093
1.84375,-0.0383418
1.844,0.0518867
1.84425,-0.0189124
1.8445,-0.0198645
1.84475,-0.0250448
1.845,-0.0124854
1.84525,-0.0245585
1.8455,-0.0450385
1.84575,-0.00171064
1.846,-0.084712
1.84625,-0.0158955
1.8465,-0.0191639
1.84675,-0.0966051
1.847,-0.0605406
1.84725,-0.0362354
1.8475,-0.0952509
1.84775,-0.0718148
1.848,-0.0603929
1.84825,-0.029325
1.8485,-0.0955472
1.84875,-0.0503082
1.849,-0.0406276
1.84925,-0.0369432
1.8495,-0.0324286
1.84975,-0.00165104
1.85,-0.000116467
1.85025,0.00775131
1.8505,0.017246
1.85075,0.0242595
1.851,0.0531258
1.85125,0.0790799
1.8515,0.0481714
1.85175,0.0321763
1.852,0.0722328
1.85225,0.0989107
1.8525,0.119002
1.85275,0.0475015
1.853,0.0348509
1.85325,0.114406
1.8535,0.0364596
1.85375,0.109425
1.854,0.0722172
1.85425,0.0438792
1.8545,-0.0002794
1.85475,0.0571365
1.855,0.0334006
1.85525,-0.0108807
1.8555,-0.0110584
1.85575,-0.00593288
1.856,0.01396
1.85625,0.0255126
1.8565,0.00755351
1.85675,-0.0362783
1.857,-0.00460678
1.85725,0.0250695
1.8575,-0.025277
1.85775,0.00792743
1.858,0.000313832
1.85825,-0.00210033
1.8585,-0.00235539
1.85875,0.0117052
1.859,0.000709508
1.85925,-0.0102662
1.8595,-0.0143849
1.85975,0.0243558
1.86,0.0471038
1.86025,0.0372658
1.8605,-0.0589032
1.86075,-0.0296182
1.861,-0.0678921
1.86125,-0.0179567
1.8615,-0.0100002
1.86175,-0.078748
1.862,0.0148886
1.86225,-0.0204609
1.8625,-0.0910739
1.86275,-0.0371657
1.863,-0.092409
1.86325,-0.0404589
1.8635,-0.0175112
1.86375,-0.0711638
1.864,-0.141825
1.86425,-0.0384849
1.8645,-0.022802
1.86475,-0.0734349
1.865,-0.0792447
1.86525,-0.106003
1.8655,-0.0331844
1.86575,-0.0227164
1.866,-0.0135279
1.86625,-0.0263122
1.8665,-0.0050616
1.86675,0.00371278
1.867,0.0120718
1.86725,0.036267
1.8675,0.0427995
1.86775,0.0406007
1.868,0.0649035
1.86825,0.0433799
1.8685,0.0564655
1.86875,0.0749895
1.869,0.0853902
1.86925,0.134756
1.8695,0.0885965
1.86975,0.104714
1.87,0.0147787
1.87025,0.0416809
1.8705,0.0620281
1.87075,0.0923441
1.871,0.0645316
1.87125,0.0882267
1.8715,0.0418341
1.87175,-0.0318213
1.872,0.0818817
1.87225,0.0538003
1.8725,0.034212
1.87275,0.0253095
1.873,-0.0561517
1.87325,0.00248711
1.8735,0.00163179
1.87375,-0.0396593
1.874,0.00792665
1.87425,-0.0203244
1.8745,-0.00800951
1.87475,-0.00756837
1.875,0.000145384
1.87525,0.00559291
1.8755,0.0128512
1.87575,-0.0125632
1.876,-0.0135325
1.87625,0.0460216
1.8765,-0.0278585
1.87675,0.0615973
1.877,0.0560731
1.87725,0.0177663
1.8775,-0.0137733
1.87775,-0.014321
1.878,0.00677391
1.87825,-0.00293242
1.8785,-0.0470194
1.87875,0.0115082
1.879,-0.00722587
1.87925,-0.00871105
1.8795,-0.0568415
1.87975,-0.0373181
1.88,-0.121612
1.88025,-0.034367
1.8805,-0.107137
1.88075,-0.0663332
1.881,-0.0549218
1.88125,-0.0943114
1.8815,-0.079679
1.88175,-0.0768391
1.882,-0.0688899
1.88225,-0.0444631
1.8825,-0.0444963
1.88275,-0.0478463
1.883,-0.0211592
1.88325,-0.00270811
1.8835,0.0138239
1.88375,0.0176679
1.884,0.0121484
1.88425,0.0600648
1.8845,0.0608096
1.88475,0.062346
1.885,0.0313317
1.88525,0.0786145
1.8855,0.0557192
1.88575,0.0401131
1.886,0.0849547
1.88625,0.0997314
1.8865,0.054676
1.88675,0.128162
1.887,0.082927
1.88725,0.0758254
1.8875,0.0747912
1.88775,0.0736527
1.888,0.00237574
1.88825,0.0528969
1.8885,-0.0190289
1.88875,0.0175384
1.889,-0.00206111
1.88925,-0.0181194
1.8895,-0.0533971
1.88975,0.0339533
1.89,-0.0260518
1.89025,-0.0468225
1.8905,0.0112493
1.89075,-0.00303913
1.891,-0.0122642
1.89125,-0.016817
1.8915,0.0030969
1.89175,-0.000146992
1.892,-0.00768391
1.89225,0.00190003
1.8925,0.0265001
1.89275,-0.00997145
1.893,-0.00719704
1.89325,-0.0316569
1.8935,0.0294276
1.89375,-0.0049815
1.894,0.047694
1.89425,0.0385664
1.8945,-0.0347741
1.89475,-0.0298311
1.895,-0.0706168
1.89525,-0.0590192
1.8955,-0.0456515
1.89575,-0.0411598
1.896,-0.0803167
1.89625,-0.0152763
1.8965,-0.0753362
1.89675,-0.093622
1.897,-0.0868836
1.89725,-0.0948658
1.8975,-0.0877347
1.89775,-0.0714987
1.898,-0.109967
1.89825,-0.0977344
1.8985,-0.0724503
1.89875,-0.0712064
1.899,-0.0457998
1.89925,-0.03581
1.8995,-0.0176847
1.89975,-0.00997439
1.9,9.36E-05
1.90025,0.0113142
1.9005,0.0356561
1.90075,0.0427066
1.901,0.0575451
1.90125,0.0425545
1.9015,0.0576774
1.90175,0.0380704
1.902,0.0748077
1.90225,0.0771402
1.9025,0.0937129
1.90275,0.0295921
1.903,0.0364448
1.90325,0.0809114
1.9035,0.0890277
1.90375,2.25E-02
1.904,0.0376713
1.90425,0.0829862
1.9045,0.0589426
1.90475,-0.000122274
1.905,0.0263454
1.90525,-0.00999455
1.9055,-0.0020833
1.90575,0.0398819
1.906,0.045672
1.90625,0.0241635
1.9065,-0.0233475
1.90675,-0.0254959
1.907,-0.0379552
1.90725,-0.0279632
1.9075,-0.000440948
1.90775,-0.0137937
1.908,-0.00858787
1.90825,-0.00165898
1.9085,0.00490548
1.90875,0.0138685
1.909,0.0105866
1.90925,0.0102768
1.9095,0.0384929
1.90975,-0.00314073
1.91,-0.0320102
1.91025,0.0584744
1.9105,0.0562227
1.91075,-0.0385981
1.911,-0.0219603
1.91125,-0.012298
1.9115,0.000955894
1.91175,-0.0600686
1.912,-0.0239998
1.91225,-0.0733399
1.9125,-0.0647327
1.91275,-0.0710027
1.913,-0.0584064
1.91325,-0.0276104
1.9135,-0.0795211
1.91375,-0.0398219
1.914,-0.0750697
1.91425,-0.0449233
1.9145,-0.113371
1.91475,-0.0909919
1.915,-0.128169
1.91525,-0.0296624
1.9155,-0.0890441
1.91575,-0.0645976
1.916,-0.0484018
1.91625,-0.010275
1.9165,-0.0130876
1.91675,0.0031967
1.917,0.0164331
1.91725,0.0426089
1.9175,0.0498673
1.91775,0.0456024
1.918,0.061164
1.91825,0.059118
1.9185,0.0671866
1.91875,0.0348834
1.919,0.0674029
1.91925,6.18E-02
1.9195,0.0651271
1.91975,0.108528
1.92,0.115213
1.92025,0.0437087
1.9205,0.0586178
1.92075,0.0526751
1.921,0.0229355
1.92125,0.0524519
1.9215,0.0603934
1.92175,0.0463289
1.922,-0.00231431
1.92225,0.069269
1.9225,-0.0370011
1.92275,-0.00852733
1.923,0.0123347
1.92325,-0.00934294
1.9235,0.0094661
1.92375,-0.00441167
1.924,0.0102074
1.92425,0.00979237
1.9245,-0.00457178
1.92475,-0.0118152
1.925,-0.00027272
1.92525,0.0082781
1.9255,0.00162864
1.92575,-0.00427726
1.926,-0.0105205
1.92625,0.054617
1.9265,0.00421423
1.92675,0.0130743
1.927,0.0420153
1.92725,-0.00304169
1.9275,-0.0440411
1.92775,0.0234781
1.928,-0.0192622
1.92825,-0.0728952
1.9285,0.0190505
1.92875,-0.0151161
1.929,-0.00154438
1.92925,-0.0476546
1.9295,-0.0541984
1.92975,-0.061434
1.93,-0.0246575
1.93025,-0.0610444
1.9305,-0.115366
1.93075,-0.124504
1.931,-0.134819
1.93125,-0.0766892
1.9315,-0.0662906
1.93175,-0.0177435
1.932,-0.0724616
1.93225,-0.0789792
1.9325,-0.0491797
1.93275,-0.0323166
1.933,-0.0145226
1.93325,-0.00463813
1.9335,0.00441651
1.93375,0.0375086
1.934,0.03092
1.93425,0.0573037
1.9345,0.0255314
1.93475,0.0522591
1.935,0.060288
1.93525,0.0327851
1.9355,0.0624845
1.93575,0.0315871
1.936,0.0920949
1.93625,0.0697633
1.9365,0.106226
1.93675,0.0807148
1.937,0.047273
1.93725,0.0837212
1.9375,0.00715275
1.93775,0.0530155
1.938,0.0630596
1.93825,0.0548406
1.9385,0.0113594
1.93875,0.0118687
1.939,0.00985347
1.93925,0.0368439
1.9395,0.00585593
1.93975,-0.0172651
1.94,-0.0381884
1.94025,0.0118793
1.9405,-0.0287817
1.94075,-0.0118064
1.941,0.00753535
1.94125,-0.00254893
1.9415,-0.00196718
1.94175,0.000717678
1.942,-0.000513398
1.94225,-0.00241755
1.9425,0.0233407
1.94275,0.00500311
1.943,1.15E-02
1.94325,-0.00782428
1.9435,0.0334474
1.94375,0.000927669
1.944,0.061359
1.94425,-0.0190624
1.9445,-0.000938559
1.94475,-0.032276
1.945,-0.0734657
1.94525,-0.051598
1.9455,-0.00414425
1.94575,-0.0383763
1.946,-0.0183086
1.94625,-0.010595
1.9465,-1.12E-01
1.94675,-0.117538
1.947,-0.125462
1.94725,-0.061944
1.9475,-0.10507
1.94775,-0.0867109
1.948,-0.119658
1.94825,-0.0813952
1.9485,-0.0749936
1.94875,-0.012585
1.949,-0.0722836
1.94925,-0.0253234
1.9495,-0.0144919
1.94975,-0.0104229
1.95,-1.33E-05
1.95025,0.0092593
1.9505,0.0198266
1.95075,0.0307823
1.951,0.0712205
1.95125,0.0283787
1.9515,0.0499382
1.95175,0.0267746
1.952,0.117594
1.95225,0.054971
1.9525,0.085095
1.95275,0.0746096
1.953,0.0450279
1.95325,0.0812884
1.9535,0.08285
1.95375,0.0418971
1.954,0.0254639
1.95425,0.04702
1.9545,4.25E-02
1.95475,0.0360547
1.955,0.0266971
1.95525,0.0164907
1.9555,-0.0149567
1.95575,-0.00837512
1.956,0.0276838
1.95625,-0.0244072
1.9565,0.0238247
1.95675,0.0271151
1.957,-0.00620902
1.95725,-0.0193615
1.9575,0.00443885
1.95775,0.00869509
1.958,0.00606806
1.95825,0.0018995
1.9585,0.000670101
1.95875,0.00135361
1.959,-0.00944552
1.95925,-0.0188584
1.9595,-0.0293452
1.95975,-0.0033364
1.96,0.0197603
1.96025,0.0020275
1.9605,0.0100641
1.96075,-0.0639808
1.961,-2.00E-02
1.96125,-0.0254564
1.9615,0.013279
1.96175,-0.0604611
1.962,-0.0570667
1.96225,-0.0451118
1.9625,-0.0546111
1.96275,-0.0322486
1.963,-0.115406
1.96325,-0.0886991
1.9635,-0.095417
1.96375,-0.0634182
1.964,-0.0419931
1.96425,-0.127159
1.9645,-0.0306908
1.96475,-0.0703783
1.965,-0.0526255
1.96525,-0.0347032
1.9655,-0.0263984
1.96575,-0.0362225
1.966,-0.0292936
1.96625,-0.0249662
1.9665,-0.0117698
1.96675,0.00789336
1.967,0.00742738
1.96725,0.0444162
1.9675,0.031694
1.96775,0.0244528
1.968,0.0970637
1.96825,0.0825973
1.9685,0.0647344
1.96875,0.0799292
1.969,0.0715855
1.96925,0.0799967
1.9695,0.0712197
1.96975,0.0663174
1.97,0.0160975
1.97025,0.0926073
1.9705,0.076395
1.97075,0.0658224
1.971,0.075433
1.97125,0.0425095
1.9715,-0.0142443
1.97175,0.0125965
1.972,0.0322977
1.97225,-1.64E-02
1.9725,0.0108036
1.97275,-0.0150978
1.973,0.0243522
1.97325,0.00543559
1.9735,-0.00106818
1.97375,0.00944078
1.974,-0.0292184
1.97425,0.00660067
1.9745,-0.014176
1.97475,0.00820433
1.975,0.00528713
1.97525,0.0112688
1.9755,0.00164833
1.97575,-0.0202176
1.976,-0.0128118
1.97625,-0.0221576
1.9765,0.0566185
1.97675,-0.0243442
1.977,0.0555848
1.97725,-0.0398224
1.9775,0.0264896
1.97775,-0.00645992
1.978,-0.0436316
1.97825,-0.0424893
1.9785,0.00498404
1.97875,-0.0171723
1.979,-0.00573119
1.97925,-0.00734037
1.9795,-0.0645504
1.97975,-0.114191
1.98,-0.091791
1.98025,-0.0436288
1.9805,-0.119857
1.98075,-0.02472
1.981,-0.0594551
1.98125,-0.13235
1.9815,-0.038006
1.98175,-0.042389
1.982,-0.0182626
1.98225,-0.0130886
1.9825,-0.0110398
1.98275,-0.0335433
1.983,-0.00920573
1.98325,0.00604085
1.9835,0.0164481
1.98375,0.020958
1.984,0.0456611
1.98425,0.0891487
1.9845,0.0151151
1.98475,0.0731447
1.985,0.0927503
1.98525,0.111656
1.9855,0.0973914
1.98575,0.0930859
1.986,0.0854077
1.98625,0.0682932
1.9865,0.106623
1.98675,0.0985414
1.987,0.0395921
1.98725,0.0746426
1.9875,0.0441387
1.98775,0.0657366
1.988,0.0963275
1.98825,0.0314882
1.9885,0.00205501
1.98875,0.00412797
1.989,-0.0243349
1.98925,-0.0135857
1.9895,0.00872845
1.98975,0.0268251
1.99,0.00907591
1.99025,0.0507491
1.9905,0.0247041
1.99075,0.0212673
1.991,0.00270116
1.99125,0.0155895
1.9915,0.0153791
1.99175,0.0187113
1.992,0.0197598
1.99225,0.0163092
1.9925,0.0194915
1.99275,0.0170483
1.993,0.0563598
1.99325,0.0537089
1.9935,0.0134091
1.99375,0.0331469
1.994,0.0417103
1.99425,-0.0245271
1.9945,-0.0433537
1.99475,0.0231592
1.995,0.052532
1.99525,0.0233544
1.9955,-0.0566081
1.99575,-0.0276683
1.996,-0.0719122
1.99625,-0.0132625
1.9965,-0.108434
1.99675,-0.0496635
1.997,-0.0559947
1.99725,-0.0192958
1.9975,0.00545615
1.99775,-0.0057777
1.998,-0.0667276
1.99825,-0.0759233
1.9985,-0.0521009
1.99875,-0.0510928
1.999,-0.014233
1.99925,0.0222489
1.9995,0.00943061
